%OpenBCI Raw EXG Data
%Number of channels = 8
%Sample Rate = 250 Hz
%Board = OpenBCI_GUI$BoardCytonSerial
Sample Index, EXG Channel 0, EXG Channel 1, EXG Channel 2, EXG Channel 3, EXG Channel 4, EXG Channel 5, EXG Channel 6, EXG Channel 7, Accel Channel 0, Accel Channel 1, Accel Channel 2, Other, Other, Other, Other, Other, Other, Other, Analog Channel 0, Analog Channel 1, Analog Channel 2, Timestamp, Other, Timestamp (Formatted)
0.0, 42.35655574280688, 0.0, 0.0, 0.0, 0.0, 0.0, 0.0, 0.0, 0.026000000000000002, 0.106, 0.49, 192.0, 0.0, 208.0, 3.0, 80.0, 15.0, 80.0, 0.0, 0.0, 0.0, 1.689843673005051E9, 0.0, 2023-07-20 11:01:13.005
1.0, 139.541940634482, 0.0, 0.0, 0.0, 0.0, 0.0, 0.0, 0.0, 0.026000000000000002, 0.106, 0.49, 192.0, 0.0, 0.0, 0.0, 0.0, 0.0, 0.0, 0.0, 0.0, 0.0, 1.689843673005165E9, 0.0, 2023-07-20 11:01:13.005
2.0, 129.1483794627642, 0.0, 0.0, 0.0, 0.0, 0.0, 0.0, 0.0, 0.026000000000000002, 0.106, 0.49, 192.0, 0.0, 0.0, 0.0, 0.0, 0.0, 0.0, 0.0, 0.0, 0.0, 1.6898436730052106E9, 0.0, 2023-07-20 11:01:13.005
3.0, 23.469331678072415, 0.0, 0.0, 0.0, 0.0, 0.0, 0.0, 0.0, 0.026000000000000002, 0.106, 0.49, 192.0, 0.0, 0.0, 0.0, 0.0, 0.0, 0.0, 0.0, 0.0, 0.0, 1.6898436730052328E9, 0.0, 2023-07-20 11:01:13.005
4.0, -151.00838554005452, 0.0, 0.0, 0.0, 0.0, 0.0, 0.0, 0.0, 0.026000000000000002, 0.106, 0.49, 192.0, 0.0, 0.0, 0.0, 0.0, 0.0, 0.0, 0.0, 0.0, 0.0, 1.6898436730052547E9, 0.0, 2023-07-20 11:01:13.005
5.0, -137.0385452554876, 0.0, 0.0, 0.0, 0.0, 0.0, 0.0, 0.0, 0.026000000000000002, 0.106, 0.49, 192.0, 0.0, 0.0, 0.0, 0.0, 0.0, 0.0, 0.0, 0.0, 0.0, 1.689843673005276E9, 0.0, 2023-07-20 11:01:13.005
6.0, -73.69370146914738, 0.0, 0.0, 0.0, 0.0, 0.0, 0.0, 0.0, 0.026000000000000002, 0.106, 0.49, 192.0, 0.0, 0.0, 0.0, 0.0, 0.0, 0.0, 0.0, 0.0, 0.0, 1.6898436730052955E9, 0.0, 2023-07-20 11:01:13.005
7.0, -47.31864301188505, 0.0, 0.0, 0.0, 0.0, 0.0, 0.0, 0.0, 0.034, 0.164, 0.742, 192.0, 1.0, 16.0, 5.0, 32.0, 23.0, 48.0, 0.0, 0.0, 0.0, 1.6898436730053155E9, 0.0, 2023-07-20 11:01:13.005
8.0, 27.24677649101931, 0.0, 0.0, 0.0, 0.0, 0.0, 0.0, 0.0, 0.034, 0.164, 0.742, 192.0, 0.0, 0.0, 0.0, 0.0, 0.0, 0.0, 0.0, 0.0, 0.0, 1.689843673005335E9, 0.0, 2023-07-20 11:01:13.005
9.0, 28.721991625069574, 0.0, 0.0, 0.0, 0.0, 0.0, 0.0, 0.0, 0.034, 0.164, 0.742, 192.0, 0.0, 0.0, 0.0, 0.0, 0.0, 0.0, 0.0, 0.0, 0.0, 1.6898436730053527E9, 0.0, 2023-07-20 11:01:13.005
10.0, 76.06298638140993, 0.0, 0.0, 0.0, 0.0, 0.0, 0.0, 0.0, 0.034, 0.164, 0.742, 192.0, 0.0, 0.0, 0.0, 0.0, 0.0, 0.0, 0.0, 0.0, 0.0, 1.6898436730053716E9, 0.0, 2023-07-20 11:01:13.005
11.0, 101.72278901610244, 0.0, 0.0, 0.0, 0.0, 0.0, 0.0, 0.0, 0.034, 0.164, 0.742, 192.0, 0.0, 0.0, 0.0, 0.0, 0.0, 0.0, 0.0, 0.0, 0.0, 1.6898436730053897E9, 0.0, 2023-07-20 11:01:13.005
12.0, -50.269073279985584, 0.0, 0.0, 0.0, 0.0, 0.0, 0.0, 0.0, 0.034, 0.164, 0.742, 192.0, 0.0, 0.0, 0.0, 0.0, 0.0, 0.0, 0.0, 0.0, 0.0, 1.689843673005408E9, 0.0, 2023-07-20 11:01:13.005
13.0, -151.65658612925841, 0.0, 0.0, 0.0, 0.0, 0.0, 0.0, 0.0, 0.034, 0.164, 0.742, 192.0, 0.0, 0.0, 0.0, 0.0, 0.0, 0.0, 0.0, 0.0, 0.0, 1.6898436730054257E9, 0.0, 2023-07-20 11:01:13.005
14.0, -185.54183072350392, 0.0, 0.0, 0.0, 0.0, 0.0, 0.0, 0.0, 0.034, 0.164, 0.742, 192.0, 0.0, 0.0, 0.0, 0.0, 0.0, 0.0, 0.0, 0.0, 0.0, 1.6898436730054436E9, 0.0, 2023-07-20 11:01:13.005
15.0, -101.9016029717449, 0.0, 0.0, 0.0, 0.0, 0.0, 0.0, 0.0, 0.034, 0.164, 0.742, 192.0, 0.0, 0.0, 0.0, 0.0, 0.0, 0.0, 0.0, 0.0, 0.0, 1.6898436730054643E9, 0.0, 2023-07-20 11:01:13.005
16.0, 104.49440532856052, 0.0, 0.0, 0.0, 0.0, 0.0, 0.0, 0.0, 0.038, 0.186, 0.862, 192.0, 1.0, 48.0, 5.0, 208.0, 26.0, 240.0, 0.0, 0.0, 0.0, 1.6898436730054824E9, 0.0, 2023-07-20 11:01:13.005
17.0, 130.55653936344856, 0.0, 0.0, 0.0, 0.0, 0.0, 0.0, 0.0, 0.038, 0.186, 0.862, 192.0, 0.0, 0.0, 0.0, 0.0, 0.0, 0.0, 0.0, 0.0, 0.0, 1.6898436730055034E9, 0.0, 2023-07-20 11:01:13.005
18.0, 62.76369843050223, 0.0, 0.0, 0.0, 0.0, 0.0, 0.0, 0.0, 0.038, 0.186, 0.862, 192.0, 0.0, 0.0, 0.0, 0.0, 0.0, 0.0, 0.0, 0.0, 0.0, 1.6898436730055227E9, 0.0, 2023-07-20 11:01:13.005
19.0, -8.851290804301597, 0.0, 0.0, 0.0, 0.0, 0.0, 0.0, 0.0, 0.038, 0.186, 0.862, 192.0, 0.0, 0.0, 0.0, 0.0, 0.0, 0.0, 0.0, 0.0, 0.0, 1.6898436730055423E9, 0.0, 2023-07-20 11:01:13.005
20.0, -104.53910881747113, 0.0, 0.0, 0.0, 0.0, 0.0, 0.0, 0.0, 0.038, 0.186, 0.862, 192.0, 0.0, 0.0, 0.0, 0.0, 0.0, 0.0, 0.0, 0.0, 0.0, 1.6898436730055668E9, 0.0, 2023-07-20 11:01:13.005
21.0, -74.90069566973396, 0.0, 0.0, 0.0, 0.0, 0.0, 0.0, 0.0, 0.038, 0.186, 0.862, 192.0, 0.0, 0.0, 0.0, 0.0, 0.0, 0.0, 0.0, 0.0, 0.0, 1.6898436730055873E9, 0.0, 2023-07-20 11:01:13.005
22.0, -82.9249719291892, 0.0, 0.0, 0.0, 0.0, 0.0, 0.0, 0.0, 0.038, 0.186, 0.862, 192.0, 0.0, 0.0, 0.0, 0.0, 0.0, 0.0, 0.0, 0.0, 0.0, 1.6898436730056317E9, 0.0, 2023-07-20 11:01:13.005
23.0, -114.39622812226155, 0.0, 0.0, 0.0, 0.0, 0.0, 0.0, 0.0, 0.038, 0.186, 0.862, 192.0, 0.0, 0.0, 0.0, 0.0, 0.0, 0.0, 0.0, 0.0, 0.0, 1.6898436730056543E9, 0.0, 2023-07-20 11:01:13.005
24.0, -6.660819847681505, 0.0, 0.0, 0.0, 0.0, 0.0, 0.0, 0.0, 0.038, 0.186, 0.862, 192.0, 0.0, 0.0, 0.0, 0.0, 0.0, 0.0, 0.0, 0.0, 0.0, 1.689843673005676E9, 0.0, 2023-07-20 11:01:13.005
25.0, 74.6771782251809, 0.0, 0.0, 0.0, 0.0, 0.0, 0.0, 0.0, 0.038, 0.186, 0.862, 192.0, 0.0, 0.0, 0.0, 0.0, 0.0, 0.0, 0.0, 0.0, 0.0, 1.6898436730057006E9, 0.0, 2023-07-20 11:01:13.005
26.0, 138.8937400452781, 0.0, 0.0, 0.0, 0.0, 0.0, 0.0, 0.0, 0.044, 0.2, 0.922, 192.0, 1.0, 96.0, 6.0, 64.0, 28.0, 208.0, 0.0, 0.0, 0.0, 1.6898436730057223E9, 0.0, 2023-07-20 11:01:13.005
27.0, 93.31853310090699, 0.0, 0.0, 0.0, 0.0, 0.0, 0.0, 0.0, 0.044, 0.2, 0.922, 192.0, 0.0, 0.0, 0.0, 0.0, 0.0, 0.0, 0.0, 0.0, 0.0, 1.689843673005742E9, 0.0, 2023-07-20 11:01:13.005
28.0, -116.94432699016656, 0.0, 0.0, 0.0, 0.0, 0.0, 0.0, 0.0, 0.044, 0.2, 0.922, 192.0, 0.0, 0.0, 0.0, 0.0, 0.0, 0.0, 0.0, 0.0, 0.0, 1.689843673005764E9, 0.0, 2023-07-20 11:01:13.005
29.0, -184.98303711212125, 0.0, 0.0, 0.0, 0.0, 0.0, 0.0, 0.0, 0.044, 0.2, 0.922, 192.0, 0.0, 0.0, 0.0, 0.0, 0.0, 0.0, 0.0, 0.0, 0.0, 1.6898436730057824E9, 0.0, 2023-07-20 11:01:13.005
30.0, -139.74310633457975, 0.0, 0.0, 0.0, 0.0, 0.0, 0.0, 0.0, 0.044, 0.2, 0.922, 192.0, 0.0, 0.0, 0.0, 0.0, 0.0, 0.0, 0.0, 0.0, 0.0, 1.689843673005844E9, 0.0, 2023-07-20 11:01:13.005
31.0, -38.86968360777898, 0.0, 0.0, 0.0, 0.0, 0.0, 0.0, 0.0, 0.044, 0.2, 0.922, 192.0, 0.0, 0.0, 0.0, 0.0, 0.0, 0.0, 0.0, 0.0, 0.0, 1.6898436730059087E9, 0.0, 2023-07-20 11:01:13.005
32.0, 97.27479186949634, 0.0, 0.0, 0.0, 0.0, 0.0, 0.0, 0.0, 0.044, 0.2, 0.922, 192.0, 0.0, 0.0, 0.0, 0.0, 0.0, 0.0, 0.0, 0.0, 0.0, 1.68984367300594E9, 0.0, 2023-07-20 11:01:13.005
33.0, 64.2389135645525, 0.0, 0.0, 0.0, 0.0, 0.0, 0.0, 0.0, 0.044, 0.2, 0.922, 192.0, 0.0, 0.0, 0.0, 0.0, 0.0, 0.0, 0.0, 0.0, 0.0, 1.6898436730059624E9, 0.0, 2023-07-20 11:01:13.005
34.0, 28.654936391703654, 0.0, 0.0, 0.0, 0.0, 0.0, 0.0, 0.0, 0.044, 0.2, 0.922, 192.0, 0.0, 0.0, 0.0, 0.0, 0.0, 0.0, 0.0, 0.0, 0.0, 1.6898436730059848E9, 0.0, 2023-07-20 11:01:13.005
35.0, 36.25452950650806, 0.0, 0.0, 0.0, 0.0, 0.0, 0.0, 0.0, 0.044, 0.2, 0.922, 192.0, 0.0, 0.0, 0.0, 0.0, 0.0, 0.0, 0.0, 0.0, 0.0, 1.689843673006005E9, 0.0, 2023-07-20 11:01:13.006
36.0, -41.52954119796052, 0.0, 0.0, 0.0, 0.0, 0.0, 0.0, 0.0, 0.04, 0.212, 0.9540000000000001, 192.0, 1.0, 64.0, 6.0, 160.0, 29.0, 208.0, 0.0, 0.0, 0.0, 1.6898436730060236E9, 0.0, 2023-07-20 11:01:13.006
37.0, -81.9861986620663, 0.0, 0.0, 0.0, 0.0, 0.0, 0.0, 0.0, 0.04, 0.212, 0.9540000000000001, 192.0, 0.0, 0.0, 0.0, 0.0, 0.0, 0.0, 0.0, 0.0, 0.0, 1.689843673006045E9, 0.0, 2023-07-20 11:01:13.006
38.0, -149.19789423917464, 0.0, 0.0, 0.0, 0.0, 0.0, 0.0, 0.0, 0.04, 0.212, 0.9540000000000001, 192.0, 0.0, 0.0, 0.0, 0.0, 0.0, 0.0, 0.0, 0.0, 0.0, 1.6898436730060668E9, 0.0, 2023-07-20 11:01:13.006
39.0, -148.50499016106014, 0.0, 0.0, 0.0, 0.0, 0.0, 0.0, 0.0, 0.04, 0.212, 0.9540000000000001, 192.0, 0.0, 0.0, 0.0, 0.0, 0.0, 0.0, 0.0, 0.0, 0.0, 1.689843673006091E9, 0.0, 2023-07-20 11:01:13.006
40.0, 38.512055696494066, 0.0, 0.0, 0.0, 0.0, 0.0, 0.0, 0.0, 0.04, 0.212, 0.9540000000000001, 192.0, 0.0, 0.0, 0.0, 0.0, 0.0, 0.0, 0.0, 0.0, 0.0, 1.689843673006111E9, 0.0, 2023-07-20 11:01:13.006
41.0, 138.44670515617196, 0.0, 0.0, 0.0, 0.0, 0.0, 0.0, 0.0, 0.04, 0.212, 0.9540000000000001, 192.0, 0.0, 0.0, 0.0, 0.0, 0.0, 0.0, 0.0, 0.0, 0.0, 1.6898436730061283E9, 0.0, 2023-07-20 11:01:13.006
42.0, 132.5458446199709, 0.0, 0.0, 0.0, 0.0, 0.0, 0.0, 0.0, 0.04, 0.212, 0.9540000000000001, 192.0, 0.0, 0.0, 0.0, 0.0, 0.0, 0.0, 0.0, 0.0, 0.0, 1.6898436730061471E9, 0.0, 2023-07-20 11:01:13.006
43.0, 27.202073002108694, 0.0, 0.0, 0.0, 0.0, 0.0, 0.0, 0.0, 0.04, 0.212, 0.9540000000000001, 192.0, 0.0, 0.0, 0.0, 0.0, 0.0, 0.0, 0.0, 0.0, 0.0, 1.6898436730061717E9, 0.0, 2023-07-20 11:01:13.006
44.0, -151.5895308958925, 0.0, 0.0, 0.0, 0.0, 0.0, 0.0, 0.0, 0.04, 0.212, 0.9540000000000001, 192.0, 0.0, 0.0, 0.0, 0.0, 0.0, 0.0, 0.0, 0.0, 0.0, 1.6898436730061903E9, 0.0, 2023-07-20 11:01:13.006
45.0, -141.1065627463535, 0.0, 0.0, 0.0, 0.0, 0.0, 0.0, 0.0, 0.04, 0.212, 0.9540000000000001, 192.0, 0.0, 0.0, 0.0, 0.0, 0.0, 0.0, 0.0, 0.0, 0.0, 1.6898436730062091E9, 0.0, 2023-07-20 11:01:13.006
46.0, -75.90652417022278, 0.0, 0.0, 0.0, 0.0, 0.0, 0.0, 0.0, 0.042, 0.212, 0.972, 192.0, 1.0, 80.0, 6.0, 160.0, 30.0, 96.0, 0.0, 0.0, 0.0, 1.6898436730062284E9, 0.0, 2023-07-20 11:01:13.006
47.0, -44.74819239952474, 0.0, 0.0, 0.0, 0.0, 0.0, 0.0, 0.0, 0.042, 0.212, 0.972, 192.0, 0.0, 0.0, 0.0, 0.0, 0.0, 0.0, 0.0, 0.0, 0.0, 1.6898436730062475E9, 0.0, 2023-07-20 11:01:13.006
48.0, 30.331317225851684, 0.0, 0.0, 0.0, 0.0, 0.0, 0.0, 0.0, 0.042, 0.212, 0.972, 192.0, 0.0, 0.0, 0.0, 0.0, 0.0, 0.0, 0.0, 0.0, 0.0, 1.6898436730062673E9, 0.0, 2023-07-20 11:01:13.006
49.0, 28.699639880614267, 0.0, 0.0, 0.0, 0.0, 0.0, 0.0, 0.0, 0.042, 0.212, 0.972, 192.0, 0.0, 0.0, 0.0, 0.0, 0.0, 0.0, 0.0, 0.0, 0.0, 1.6898436730062876E9, 0.0, 2023-07-20 11:01:13.006
50.0, 71.8385066793569, 0.0, 0.0, 0.0, 0.0, 0.0, 0.0, 0.0, 0.042, 0.212, 0.972, 192.0, 0.0, 0.0, 0.0, 0.0, 0.0, 0.0, 0.0, 0.0, 0.0, 1.6898436730063088E9, 0.0, 2023-07-20 11:01:13.006
51.0, 99.53231805948235, 0.0, 0.0, 0.0, 0.0, 0.0, 0.0, 0.0, 0.042, 0.212, 0.972, 192.0, 0.0, 0.0, 0.0, 0.0, 0.0, 0.0, 0.0, 0.0, 0.0, 1.6898436730063288E9, 0.0, 2023-07-20 11:01:13.006
52.0, -47.05042207842137, 0.0, 0.0, 0.0, 0.0, 0.0, 0.0, 0.0, 0.042, 0.212, 0.972, 192.0, 0.0, 0.0, 0.0, 0.0, 0.0, 0.0, 0.0, 0.0, 0.0, 1.6898436730063488E9, 0.0, 2023-07-20 11:01:13.006
53.0, -148.1697139942305, 0.0, 0.0, 0.0, 0.0, 0.0, 0.0, 0.0, 0.042, 0.212, 0.972, 192.0, 0.0, 0.0, 0.0, 0.0, 0.0, 0.0, 0.0, 0.0, 0.0, 1.6898436730063694E9, 0.0, 2023-07-20 11:01:13.006
54.0, -185.54183072350392, 0.0, 0.0, 0.0, 0.0, 0.0, 0.0, 0.0, 0.042, 0.212, 0.972, 192.0, 0.0, 0.0, 0.0, 0.0, 0.0, 0.0, 0.0, 0.0, 0.0, 1.68984367300639E9, 0.0, 2023-07-20 11:01:13.006
55.0, -105.96962046261078, 0.0, 0.0, 0.0, 0.0, 0.0, 0.0, 0.0, 0.042, 0.212, 0.972, 192.0, 0.0, 0.0, 0.0, 0.0, 0.0, 0.0, 0.0, 0.0, 0.0, 1.68984367300641E9, 0.0, 2023-07-20 11:01:13.006
56.0, 102.32628611639574, 0.0, 0.0, 0.0, 0.0, 0.0, 0.0, 0.0, 0.044, 0.216, 0.974, 192.0, 1.0, 96.0, 6.0, 192.0, 30.0, 112.0, 0.0, 0.0, 0.0, 1.68984367300643E9, 0.0, 2023-07-20 11:01:13.006
57.0, 132.94817602016641, 0.0, 0.0, 0.0, 0.0, 0.0, 0.0, 0.0, 0.044, 0.216, 0.974, 192.0, 0.0, 0.0, 0.0, 0.0, 0.0, 0.0, 0.0, 0.0, 0.0, 1.6898436730064511E9, 0.0, 2023-07-20 11:01:13.006
58.0, 66.56349498790443, 0.0, 0.0, 0.0, 0.0, 0.0, 0.0, 0.0, 0.044, 0.216, 0.974, 192.0, 0.0, 0.0, 0.0, 0.0, 0.0, 0.0, 0.0, 0.0, 0.0, 1.689843673006471E9, 0.0, 2023-07-20 11:01:13.006
59.0, -8.873642548756903, 0.0, 0.0, 0.0, 0.0, 0.0, 0.0, 0.0, 0.044, 0.216, 0.974, 192.0, 0.0, 0.0, 0.0, 0.0, 0.0, 0.0, 0.0, 0.0, 0.0, 1.6898436730064902E9, 0.0, 2023-07-20 11:01:13.006
60.0, -108.897698986256, 0.0, 0.0, 0.0, 0.0, 0.0, 0.0, 0.0, 0.044, 0.216, 0.974, 192.0, 0.0, 0.0, 0.0, 0.0, 0.0, 0.0, 0.0, 0.0, 0.0, 1.689843673006508E9, 0.0, 2023-07-20 11:01:13.006
61.0, -76.55472475942669, 0.0, 0.0, 0.0, 0.0, 0.0, 0.0, 0.0, 0.044, 0.216, 0.974, 192.0, 0.0, 0.0, 0.0, 0.0, 0.0, 0.0, 0.0, 0.0, 0.0, 1.6898436730065248E9, 0.0, 2023-07-20 11:01:13.006
62.0, -79.88513468326744, 0.0, 0.0, 0.0, 0.0, 0.0, 0.0, 0.0, 0.044, 0.216, 0.974, 192.0, 0.0, 0.0, 0.0, 0.0, 0.0, 0.0, 0.0, 0.0, 0.0, 1.6898436730065424E9, 0.0, 2023-07-20 11:01:13.006
63.0, -110.39526586476158, 0.0, 0.0, 0.0, 0.0, 0.0, 0.0, 0.0, 0.044, 0.216, 0.974, 192.0, 0.0, 0.0, 0.0, 0.0, 0.0, 0.0, 0.0, 0.0, 0.0, 1.689843673006565E9, 0.0, 2023-07-20 11:01:13.006
64.0, -6.504357636494356, 0.0, 0.0, 0.0, 0.0, 0.0, 0.0, 0.0, 0.044, 0.216, 0.974, 192.0, 0.0, 0.0, 0.0, 0.0, 0.0, 0.0, 0.0, 0.0, 0.0, 1.689843673006591E9, 0.0, 2023-07-20 11:01:13.006
65.0, 70.43034677867256, 0.0, 0.0, 0.0, 0.0, 0.0, 0.0, 0.0, 0.044, 0.216, 0.974, 192.0, 0.0, 0.0, 0.0, 0.0, 0.0, 0.0, 0.0, 0.0, 0.0, 1.689843673006611E9, 0.0, 2023-07-20 11:01:13.006
66.0, 136.993841766577, 0.0, 0.0, 0.0, 0.0, 0.0, 0.0, 0.0, 0.048, 0.218, 0.982, 192.0, 1.0, 128.0, 6.0, 208.0, 30.0, 176.0, 0.0, 0.0, 0.0, 1.6898436730066316E9, 0.0, 2023-07-20 11:01:13.006
67.0, 96.5148325580159, 0.0, 0.0, 0.0, 0.0, 0.0, 0.0, 0.0, 0.048, 0.218, 0.982, 192.0, 0.0, 0.0, 0.0, 0.0, 0.0, 0.0, 0.0, 0.0, 0.0, 1.689843673006652E9, 0.0, 2023-07-20 11:01:13.006
68.0, -112.6974955436582, 0.0, 0.0, 0.0, 0.0, 0.0, 0.0, 0.0, 0.048, 0.218, 0.982, 192.0, 0.0, 0.0, 0.0, 0.0, 0.0, 0.0, 0.0, 0.0, 0.0, 1.6898436730066724E9, 0.0, 2023-07-20 11:01:13.006
69.0, -185.4300720012274, 0.0, 0.0, 0.0, 0.0, 0.0, 0.0, 0.0, 0.048, 0.218, 0.982, 192.0, 0.0, 0.0, 0.0, 0.0, 0.0, 0.0, 0.0, 0.0, 0.0, 1.689843673006693E9, 0.0, 2023-07-20 11:01:13.006
70.0, -143.63230986980318, 0.0, 0.0, 0.0, 0.0, 0.0, 0.0, 0.0, 0.048, 0.218, 0.982, 192.0, 0.0, 0.0, 0.0, 0.0, 0.0, 0.0, 0.0, 0.0, 0.0, 1.6898436730067132E9, 0.0, 2023-07-20 11:01:13.006
71.0, -40.367250486284554, 0.0, 0.0, 0.0, 0.0, 0.0, 0.0, 0.0, 0.048, 0.218, 0.982, 192.0, 0.0, 0.0, 0.0, 0.0, 0.0, 0.0, 0.0, 0.0, 0.0, 1.6898436730067327E9, 0.0, 2023-07-20 11:01:13.006
72.0, 99.12998665928683, 0.0, 0.0, 0.0, 0.0, 0.0, 0.0, 0.0, 0.048, 0.218, 0.982, 192.0, 0.0, 0.0, 0.0, 0.0, 0.0, 0.0, 0.0, 0.0, 0.0, 1.6898436730067532E9, 0.0, 2023-07-20 11:01:13.006
73.0, 67.7481374440357, 0.0, 0.0, 0.0, 0.0, 0.0, 0.0, 0.0, 0.048, 0.218, 0.982, 192.0, 0.0, 0.0, 0.0, 0.0, 0.0, 0.0, 0.0, 0.0, 0.0, 1.6898436730067744E9, 0.0, 2023-07-20 11:01:13.006
74.0, 28.1631980136869, 0.0, 0.0, 0.0, 0.0, 0.0, 0.0, 0.0, 0.048, 0.218, 0.982, 192.0, 0.0, 0.0, 0.0, 0.0, 0.0, 0.0, 0.0, 0.0, 0.0, 1.6898436730067945E9, 0.0, 2023-07-20 11:01:13.006
75.0, 31.828884104357257, 0.0, 0.0, 0.0, 0.0, 0.0, 0.0, 0.0, 0.048, 0.218, 0.982, 192.0, 0.0, 0.0, 0.0, 0.0, 0.0, 0.0, 0.0, 0.0, 0.0, 1.689843673006816E9, 0.0, 2023-07-20 11:01:13.006
76.0, -43.854122621312456, 0.0, 0.0, 0.0, 0.0, 0.0, 0.0, 0.0, 0.044, 0.222, 0.98, 192.0, 1.0, 96.0, 6.0, 240.0, 30.0, 160.0, 0.0, 0.0, 0.0, 1.6898436730068376E9, 0.0, 2023-07-20 11:01:13.006
77.0, -79.37104456079538, 0.0, 0.0, 0.0, 0.0, 0.0, 0.0, 0.0, 0.044, 0.222, 0.98, 192.0, 0.0, 0.0, 0.0, 0.0, 0.0, 0.0, 0.0, 0.0, 0.0, 1.689843673006858E9, 0.0, 2023-07-20 11:01:13.006
78.0, -145.08517325939815, 0.0, 0.0, 0.0, 0.0, 0.0, 0.0, 0.0, 0.044, 0.222, 0.98, 192.0, 0.0, 0.0, 0.0, 0.0, 0.0, 0.0, 0.0, 0.0, 0.0, 1.68984367300688E9, 0.0, 2023-07-20 11:01:13.006
79.0, -148.1697139942305, 0.0, 0.0, 0.0, 0.0, 0.0, 0.0, 0.0, 0.044, 0.222, 0.98, 192.0, 0.0, 0.0, 0.0, 0.0, 0.0, 0.0, 0.0, 0.0, 0.0, 1.689843673006904E9, 0.0, 2023-07-20 11:01:13.006
80.0, 34.62285216127064, 0.0, 0.0, 0.0, 0.0, 0.0, 0.0, 0.0, 0.044, 0.222, 0.98, 192.0, 0.0, 0.0, 0.0, 0.0, 0.0, 0.0, 0.0, 0.0, 0.0, 1.6898436730069242E9, 0.0, 2023-07-20 11:01:13.006
81.0, 135.96566152163285, 0.0, 0.0, 0.0, 0.0, 0.0, 0.0, 0.0, 0.044, 0.222, 0.98, 192.0, 0.0, 0.0, 0.0, 0.0, 0.0, 0.0, 0.0, 0.0, 0.0, 1.689843673006944E9, 0.0, 2023-07-20 11:01:13.006
82.0, 134.87042604332282, 0.0, 0.0, 0.0, 0.0, 0.0, 0.0, 0.0, 0.044, 0.222, 0.98, 192.0, 0.0, 0.0, 0.0, 0.0, 0.0, 0.0, 0.0, 0.0, 0.0, 1.6898436730069623E9, 0.0, 2023-07-20 11:01:13.006
83.0, 31.11362828178743, 0.0, 0.0, 0.0, 0.0, 0.0, 0.0, 0.0, 0.044, 0.222, 0.98, 192.0, 0.0, 0.0, 0.0, 0.0, 0.0, 0.0, 0.0, 0.0, 0.0, 1.689843673006979E9, 0.0, 2023-07-20 11:01:13.006
84.0, -151.70128961816903, 0.0, 0.0, 0.0, 0.0, 0.0, 0.0, 0.0, 0.044, 0.222, 0.98, 192.0, 0.0, 0.0, 0.0, 0.0, 0.0, 0.0, 0.0, 0.0, 0.0, 1.6898436730069976E9, 0.0, 2023-07-20 11:01:13.006
85.0, -144.54873139247078, 0.0, 0.0, 0.0, 0.0, 0.0, 0.0, 0.0, 0.044, 0.222, 0.98, 192.0, 0.0, 0.0, 0.0, 0.0, 0.0, 0.0, 0.0, 0.0, 0.0, 1.6898436730070152E9, 0.0, 2023-07-20 11:01:13.007
86.0, -77.89582942674511, 0.0, 0.0, 0.0, 0.0, 0.0, 0.0, 0.0, 0.044, 0.224, 0.978, 192.0, 1.0, 96.0, 7.0, 0.0, 30.0, 144.0, 0.0, 0.0, 0.0, 1.6898436730070384E9, 0.0, 2023-07-20 11:01:13.007
87.0, -42.065983064887895, 0.0, 0.0, 0.0, 0.0, 0.0, 0.0, 0.0, 0.044, 0.224, 0.978, 192.0, 0.0, 0.0, 0.0, 0.0, 0.0, 0.0, 0.0, 0.0, 0.0, 1.6898436730070567E9, 0.0, 2023-07-20 11:01:13.007
88.0, 35.24870100601924, 0.0, 0.0, 0.0, 0.0, 0.0, 0.0, 0.0, 0.044, 0.224, 0.978, 192.0, 0.0, 0.0, 0.0, 0.0, 0.0, 0.0, 0.0, 0.0, 0.0, 1.6898436730070753E9, 0.0, 2023-07-20 11:01:13.007
89.0, 28.409067202695276, 0.0, 0.0, 0.0, 0.0, 0.0, 0.0, 0.0, 0.044, 0.224, 0.978, 192.0, 0.0, 0.0, 0.0, 0.0, 0.0, 0.0, 0.0, 0.0, 0.0, 1.6898436730070934E9, 0.0, 2023-07-20 11:01:13.007
90.0, 68.17282058868655, 0.0, 0.0, 0.0, 0.0, 0.0, 0.0, 0.0, 0.044, 0.224, 0.978, 192.0, 0.0, 0.0, 0.0, 0.0, 0.0, 0.0, 0.0, 0.0, 0.0, 1.6898436730071108E9, 0.0, 2023-07-20 11:01:13.007
91.0, 97.87828896978962, 0.0, 0.0, 0.0, 0.0, 0.0, 0.0, 0.0, 0.044, 0.224, 0.978, 192.0, 0.0, 0.0, 0.0, 0.0, 0.0, 0.0, 0.0, 0.0, 0.0, 1.689843673007128E9, 0.0, 2023-07-20 11:01:13.007
92.0, -44.74819239952474, 0.0, 0.0, 0.0, 0.0, 0.0, 0.0, 0.0, 0.044, 0.224, 0.978, 192.0, 0.0, 0.0, 0.0, 0.0, 0.0, 0.0, 0.0, 0.0, 0.0, 1.6898436730071456E9, 0.0, 2023-07-20 11:01:13.007
93.0, -144.3028622034624, 0.0, 0.0, 0.0, 0.0, 0.0, 0.0, 0.0, 0.044, 0.224, 0.978, 192.0, 0.0, 0.0, 0.0, 0.0, 0.0, 0.0, 0.0, 0.0, 0.0, 1.6898436730071647E9, 0.0, 2023-07-20 11:01:13.007
94.0, -185.31831327895085, 0.0, 0.0, 0.0, 0.0, 0.0, 0.0, 0.0, 0.044, 0.224, 0.978, 192.0, 0.0, 0.0, 0.0, 0.0, 0.0, 0.0, 0.0, 0.0, 0.0, 1.689843673007184E9, 0.0, 2023-07-20 11:01:13.007
95.0, -110.01528620902137, 0.0, 0.0, 0.0, 0.0, 0.0, 0.0, 0.0, 0.044, 0.224, 0.978, 192.0, 0.0, 0.0, 0.0, 0.0, 0.0, 0.0, 0.0, 0.0, 0.0, 1.6898436730072064E9, 0.0, 2023-07-20 11:01:13.007
96.0, 100.24757388205218, 0.0, 0.0, 0.0, 0.0, 0.0, 0.0, 0.0, 0.044, 0.222, 0.98, 192.0, 1.0, 96.0, 6.0, 240.0, 30.0, 160.0, 0.0, 0.0, 0.0, 1.689843673007228E9, 0.0, 2023-07-20 11:01:13.007
97.0, 135.69744058816917, 0.0, 0.0, 0.0, 0.0, 0.0, 0.0, 0.0, 0.044, 0.222, 0.98, 192.0, 0.0, 0.0, 0.0, 0.0, 0.0, 0.0, 0.0, 0.0, 0.0, 1.6898436730072465E9, 0.0, 2023-07-20 11:01:13.007
98.0, 70.2515328230301, 0.0, 0.0, 0.0, 0.0, 0.0, 0.0, 0.0, 0.044, 0.222, 0.98, 192.0, 0.0, 0.0, 0.0, 0.0, 0.0, 0.0, 0.0, 0.0, 0.0, 1.6898436730072677E9, 0.0, 2023-07-20 11:01:13.007
99.0, -8.895994293212212, 0.0, 0.0, 0.0, 0.0, 0.0, 0.0, 0.0, 0.044, 0.222, 0.98, 192.0, 0.0, 0.0, 0.0, 0.0, 0.0, 0.0, 0.0, 0.0, 0.0, 1.6898436730072863E9, 0.0, 2023-07-20 11:01:13.007
100.0, -112.6527920547476, 0.0, 0.0, 0.0, 0.0, 0.0, 0.0, 0.0, 0.044, 0.222, 0.98, 192.0, 0.0, 0.0, 0.0, 0.0, 0.0, 0.0, 0.0, 0.0, 0.0, 1.6898436730073073E9, 0.0, 2023-07-20 11:01:13.007
101.0, -78.90165792723393, 0.0, 0.0, 0.0, 0.0, 0.0, 0.0, 0.0, 0.044, 0.222, 0.98, 192.0, 0.0, 0.0, 0.0, 0.0, 0.0, 0.0, 0.0, 0.0, 0.0, 1.6898436730073297E9, 0.0, 2023-07-20 11:01:13.007
102.0, -77.73936721555796, 0.0, 0.0, 0.0, 0.0, 0.0, 0.0, 0.0, 0.044, 0.222, 0.98, 192.0, 0.0, 0.0, 0.0, 0.0, 0.0, 0.0, 0.0, 0.0, 0.0, 1.6898436730073493E9, 0.0, 2023-07-20 11:01:13.007
103.0, -106.41665535171693, 0.0, 0.0, 0.0, 0.0, 0.0, 0.0, 0.0, 0.044, 0.222, 0.98, 192.0, 0.0, 0.0, 0.0, 0.0, 0.0, 0.0, 0.0, 0.0, 0.0, 1.68984367300737E9, 0.0, 2023-07-20 11:01:13.007
104.0, -6.347895425307206, 0.0, 0.0, 0.0, 0.0, 0.0, 0.0, 0.0, 0.044, 0.222, 0.98, 192.0, 0.0, 0.0, 0.0, 0.0, 0.0, 0.0, 0.0, 0.0, 0.0, 1.6898436730073924E9, 0.0, 2023-07-20 11:01:13.007
105.0, 66.60819847681505, 0.0, 0.0, 0.0, 0.0, 0.0, 0.0, 0.0, 0.044, 0.222, 0.98, 192.0, 0.0, 0.0, 0.0, 0.0, 0.0, 0.0, 0.0, 0.0, 0.0, 1.6898436730074143E9, 0.0, 2023-07-20 11:01:13.007
106.0, 134.57985336540384, 0.0, 0.0, 0.0, 0.0, 0.0, 0.0, 0.0, 0.04, 0.216, 0.976, 192.0, 1.0, 64.0, 6.0, 192.0, 30.0, 128.0, 0.0, 0.0, 0.0, 1.6898436730074437E9, 0.0, 2023-07-20 11:01:13.007
107.0, 99.30880061492928, 0.0, 0.0, 0.0, 0.0, 0.0, 0.0, 0.0, 0.04, 0.216, 0.976, 192.0, 0.0, 0.0, 0.0, 0.0, 0.0, 0.0, 0.0, 0.0, 0.0, 1.6898436730074725E9, 0.0, 2023-07-20 11:01:13.007
108.0, -108.60712630833702, 0.0, 0.0, 0.0, 0.0, 0.0, 0.0, 0.0, 0.04, 0.216, 0.976, 192.0, 0.0, 0.0, 0.0, 0.0, 0.0, 0.0, 0.0, 0.0, 0.0, 1.6898436730074918E9, 0.0, 2023-07-20 11:01:13.007
109.0, -185.0947958343978, 0.0, 0.0, 0.0, 0.0, 0.0, 0.0, 0.0, 0.04, 0.216, 0.976, 192.0, 0.0, 0.0, 0.0, 0.0, 0.0, 0.0, 0.0, 0.0, 0.0, 1.6898436730075142E9, 0.0, 2023-07-20 11:01:13.007
110.0, -147.58856863839253, 0.0, 0.0, 0.0, 0.0, 0.0, 0.0, 0.0, 0.04, 0.216, 0.976, 192.0, 0.0, 0.0, 0.0, 0.0, 0.0, 0.0, 0.0, 0.0, 0.0, 1.6898436730075336E9, 0.0, 2023-07-20 11:01:13.007
111.0, -42.736535398547105, 0.0, 0.0, 0.0, 0.0, 0.0, 0.0, 0.0, 0.04, 0.216, 0.976, 192.0, 0.0, 0.0, 0.0, 0.0, 0.0, 0.0, 0.0, 0.0, 0.0, 1.6898436730075543E9, 0.0, 2023-07-20 11:01:13.007
112.0, 101.87925122728959, 0.0, 0.0, 0.0, 0.0, 0.0, 0.0, 0.0, 0.04, 0.216, 0.976, 192.0, 0.0, 0.0, 0.0, 0.0, 0.0, 0.0, 0.0, 0.0, 0.0, 1.6898436730075748E9, 0.0, 2023-07-20 11:01:13.007
113.0, 71.70439621262506, 0.0, 0.0, 0.0, 0.0, 0.0, 0.0, 0.0, 0.04, 0.216, 0.976, 192.0, 0.0, 0.0, 0.0, 0.0, 0.0, 0.0, 0.0, 0.0, 0.0, 1.6898436730075946E9, 0.0, 2023-07-20 11:01:13.007
114.0, 28.587881158337733, 0.0, 0.0, 0.0, 0.0, 0.0, 0.0, 0.0, 0.04, 0.216, 0.976, 192.0, 0.0, 0.0, 0.0, 0.0, 0.0, 0.0, 0.0, 0.0, 0.0, 1.6898436730076144E9, 0.0, 2023-07-20 11:01:13.007
115.0, 28.00673580249975, 0.0, 0.0, 0.0, 0.0, 0.0, 0.0, 0.0, 0.04, 0.216, 0.976, 192.0, 0.0, 0.0, 0.0, 0.0, 0.0, 0.0, 0.0, 0.0, 0.0, 1.689843673007634E9, 0.0, 2023-07-20 11:01:13.007
116.0, -46.24575927803031, 0.0, 0.0, 0.0, 0.0, 0.0, 0.0, 0.0, 0.042, 0.22, 0.984, 192.0, 1.0, 80.0, 6.0, 224.0, 30.0, 192.0, 0.0, 0.0, 0.0, 1.6898436730076523E9, 0.0, 2023-07-20 11:01:13.007
117.0, -77.06881488189875, 0.0, 0.0, 0.0, 0.0, 0.0, 0.0, 0.0, 0.042, 0.22, 0.984, 192.0, 0.0, 0.0, 0.0, 0.0, 0.0, 0.0, 0.0, 0.0, 0.0, 1.6898436730076709E9, 0.0, 2023-07-20 11:01:13.007
118.0, -141.86652205783392, 0.0, 0.0, 0.0, 0.0, 0.0, 0.0, 0.0, 0.042, 0.22, 0.984, 192.0, 0.0, 0.0, 0.0, 0.0, 0.0, 0.0, 0.0, 0.0, 0.0, 1.6898436730076883E9, 0.0, 2023-07-20 11:01:13.007
119.0, -148.7285076056132, 0.0, 0.0, 0.0, 0.0, 0.0, 0.0, 0.0, 0.042, 0.22, 0.984, 192.0, 0.0, 0.0, 0.0, 0.0, 0.0, 0.0, 0.0, 0.0, 0.0, 1.689843673007707E9, 0.0, 2023-07-20 11:01:13.007
120.0, 30.107799781298613, 0.0, 0.0, 0.0, 0.0, 0.0, 0.0, 0.0, 0.042, 0.22, 0.984, 192.0, 0.0, 0.0, 0.0, 0.0, 0.0, 0.0, 0.0, 0.0, 0.0, 1.6898436734852355E9, 0.0, 2023-07-20 11:01:13.485
121.0, 133.28345218699602, 0.0, 0.0, 0.0, 0.0, 0.0, 0.0, 0.0, 0.042, 0.22, 0.984, 192.0, 0.0, 0.0, 0.0, 0.0, 0.0, 0.0, 0.0, 0.0, 0.0, 1.689843673485298E9, 0.0, 2023-07-20 11:01:13.485
122.0, 136.61386211083678, 0.0, 0.0, 0.0, 0.0, 0.0, 0.0, 0.0, 0.042, 0.22, 0.984, 192.0, 0.0, 0.0, 0.0, 0.0, 0.0, 0.0, 0.0, 0.0, 0.0, 1.6898436734853315E9, 0.0, 2023-07-20 11:01:13.485
123.0, 34.53344518344941, 0.0, 0.0, 0.0, 0.0, 0.0, 0.0, 0.0, 0.042, 0.22, 0.984, 192.0, 0.0, 0.0, 0.0, 0.0, 0.0, 0.0, 0.0, 0.0, 0.0, 1.689843673485359E9, 0.0, 2023-07-20 11:01:13.485
124.0, -152.03656578499863, 0.0, 0.0, 0.0, 0.0, 0.0, 0.0, 0.0, 0.042, 0.22, 0.984, 192.0, 0.0, 0.0, 0.0, 0.0, 0.0, 0.0, 0.0, 0.0, 0.0, 1.6898436734853945E9, 0.0, 2023-07-20 11:01:13.485
125.0, -149.53317040600425, 0.0, 0.0, 0.0, 0.0, 0.0, 0.0, 0.0, 0.042, 0.22, 0.984, 192.0, 0.0, 0.0, 0.0, 0.0, 0.0, 0.0, 0.0, 0.0, 0.0, 1.689843673485423E9, 0.0, 2023-07-20 11:01:13.485
126.0, -80.13100387227583, 0.0, 0.0, 0.0, 0.0, 0.0, 0.0, 0.0, 0.046, 0.218, 0.982, 192.0, 1.0, 112.0, 6.0, 208.0, 30.0, 176.0, 0.0, 0.0, 0.0, 1.6898436734854615E9, 0.0, 2023-07-20 11:01:13.485
127.0, -40.05432606391025, 0.0, 0.0, 0.0, 0.0, 0.0, 0.0, 0.0, 0.046, 0.218, 0.982, 192.0, 0.0, 0.0, 0.0, 0.0, 0.0, 0.0, 0.0, 0.0, 0.0, 1.6898436734854882E9, 0.0, 2023-07-20 11:01:13.485
128.0, 38.46735220758345, 0.0, 0.0, 0.0, 0.0, 0.0, 0.0, 0.0, 0.046, 0.218, 0.982, 192.0, 0.0, 0.0, 0.0, 0.0, 0.0, 0.0, 0.0, 0.0, 0.0, 1.6898436734855144E9, 0.0, 2023-07-20 11:01:13.485
129.0, 28.990212558533262, 0.0, 0.0, 0.0, 0.0, 0.0, 0.0, 0.0, 0.046, 0.218, 0.982, 192.0, 0.0, 0.0, 0.0, 0.0, 0.0, 0.0, 0.0, 0.0, 0.0, 1.6898436734855452E9, 0.0, 2023-07-20 11:01:13.485
130.0, 63.94834088663351, 0.0, 0.0, 0.0, 0.0, 0.0, 0.0, 0.0, 0.046, 0.218, 0.982, 192.0, 0.0, 0.0, 0.0, 0.0, 0.0, 0.0, 0.0, 0.0, 0.0, 1.689843673485573E9, 0.0, 2023-07-20 11:01:13.485
131.0, 95.576059290893, 0.0, 0.0, 0.0, 0.0, 0.0, 0.0, 0.0, 0.046, 0.218, 0.982, 192.0, 0.0, 0.0, 0.0, 0.0, 0.0, 0.0, 0.0, 0.0, 0.0, 1.6898436734856029E9, 0.0, 2023-07-20 11:01:13.485
132.0, -42.62477667627057, 0.0, 0.0, 0.0, 0.0, 0.0, 0.0, 0.0, 0.046, 0.218, 0.982, 192.0, 0.0, 0.0, 0.0, 0.0, 0.0, 0.0, 0.0, 0.0, 0.0, 1.6898436734856284E9, 0.0, 2023-07-20 11:01:13.485
133.0, -139.69840284566914, 0.0, 0.0, 0.0, 0.0, 0.0, 0.0, 0.0, 0.046, 0.218, 0.982, 192.0, 0.0, 0.0, 0.0, 0.0, 0.0, 0.0, 0.0, 0.0, 0.0, 1.6898436734856524E9, 0.0, 2023-07-20 11:01:13.485
134.0, -184.58070571192573, 0.0, 0.0, 0.0, 0.0, 0.0, 0.0, 0.0, 0.046, 0.218, 0.982, 192.0, 0.0, 0.0, 0.0, 0.0, 0.0, 0.0, 0.0, 0.0, 0.0, 1.6898436734856777E9, 0.0, 2023-07-20 11:01:13.485
135.0, -113.81508276642356, 0.0, 0.0, 0.0, 0.0, 0.0, 0.0, 0.0, 0.046, 0.218, 0.982, 192.0, 0.0, 0.0, 0.0, 0.0, 0.0, 0.0, 0.0, 0.0, 0.0, 1.689843673485705E9, 0.0, 2023-07-20 11:01:13.485
136.0, 97.85593722533432, 0.0, 0.0, 0.0, 0.0, 0.0, 0.0, 0.0, 0.042, 0.22, 0.984, 192.0, 1.0, 80.0, 6.0, 224.0, 30.0, 192.0, 0.0, 0.0, 0.0, 1.6898436734857297E9, 0.0, 2023-07-20 11:01:13.485
137.0, 137.7090975891468, 0.0, 0.0, 0.0, 0.0, 0.0, 0.0, 0.0, 0.042, 0.22, 0.984, 192.0, 0.0, 0.0, 0.0, 0.0, 0.0, 0.0, 0.0, 0.0, 0.0, 1.6898436734857516E9, 0.0, 2023-07-20 11:01:13.485
138.0, 74.0736811248876, 0.0, 0.0, 0.0, 0.0, 0.0, 0.0, 0.0, 0.042, 0.22, 0.984, 192.0, 0.0, 0.0, 0.0, 0.0, 0.0, 0.0, 0.0, 0.0, 0.0, 1.6898436734857752E9, 0.0, 2023-07-20 11:01:13.485
139.0, -8.739532082025061, 0.0, 0.0, 0.0, 0.0, 0.0, 0.0, 0.0, 0.042, 0.22, 0.984, 192.0, 0.0, 0.0, 0.0, 0.0, 0.0, 0.0, 0.0, 0.0, 0.0, 1.6898436734858043E9, 0.0, 2023-07-20 11:01:13.485
140.0, -117.21254792363024, 0.0, 0.0, 0.0, 0.0, 0.0, 0.0, 0.0, 0.042, 0.22, 0.984, 192.0, 0.0, 0.0, 0.0, 0.0, 0.0, 0.0, 0.0, 0.0, 0.0, 1.6898436734858289E9, 0.0, 2023-07-20 11:01:13.485
141.0, -81.20388760613056, 0.0, 0.0, 0.0, 0.0, 0.0, 0.0, 0.0, 0.042, 0.22, 0.984, 192.0, 0.0, 0.0, 0.0, 0.0, 0.0, 0.0, 0.0, 0.0, 0.0, 1.6898436734858506E9, 0.0, 2023-07-20 11:01:13.485
142.0, -75.68300672566971, 0.0, 0.0, 0.0, 0.0, 0.0, 0.0, 0.0, 0.042, 0.22, 0.984, 192.0, 0.0, 0.0, 0.0, 0.0, 0.0, 0.0, 0.0, 0.0, 0.0, 1.68984367348588E9, 0.0, 2023-07-20 11:01:13.485
143.0, -103.13094891678679, 0.0, 0.0, 0.0, 0.0, 0.0, 0.0, 0.0, 0.042, 0.22, 0.984, 192.0, 0.0, 0.0, 0.0, 0.0, 0.0, 0.0, 0.0, 0.0, 0.0, 1.689843673485904E9, 0.0, 2023-07-20 11:01:13.485
144.0, -5.789101813924529, 0.0, 0.0, 0.0, 0.0, 0.0, 0.0, 0.0, 0.042, 0.22, 0.984, 192.0, 0.0, 0.0, 0.0, 0.0, 0.0, 0.0, 0.0, 0.0, 0.0, 1.6898436734859252E9, 0.0, 2023-07-20 11:01:13.485
145.0, 62.6519397082257, 0.0, 0.0, 0.0, 0.0, 0.0, 0.0, 0.0, 0.042, 0.22, 0.984, 192.0, 0.0, 0.0, 0.0, 0.0, 0.0, 0.0, 0.0, 0.0, 0.0, 1.6898436734859507E9, 0.0, 2023-07-20 11:01:13.485
146.0, 132.5458446199709, 0.0, 0.0, 0.0, 0.0, 0.0, 0.0, 0.0, 0.042, 0.22, 0.988, 192.0, 1.0, 80.0, 6.0, 224.0, 30.0, 224.0, 0.0, 0.0, 0.0, 1.6898436734859726E9, 0.0, 2023-07-20 11:01:13.485
147.0, 100.85107098234546, 0.0, 0.0, 0.0, 0.0, 0.0, 0.0, 0.0, 0.042, 0.22, 0.988, 192.0, 0.0, 0.0, 0.0, 0.0, 0.0, 0.0, 0.0, 0.0, 0.0, 1.6898436734859982E9, 0.0, 2023-07-20 11:01:13.485
148.0, -105.23201289558565, 0.0, 0.0, 0.0, 0.0, 0.0, 0.0, 0.0, 0.042, 0.22, 0.988, 192.0, 0.0, 0.0, 0.0, 0.0, 0.0, 0.0, 0.0, 0.0, 0.0, 1.6898436734860191E9, 0.0, 2023-07-20 11:01:13.486
149.0, -184.62540920083634, 0.0, 0.0, 0.0, 0.0, 0.0, 0.0, 0.0, 0.042, 0.22, 0.988, 192.0, 0.0, 0.0, 0.0, 0.0, 0.0, 0.0, 0.0, 0.0, 0.0, 1.689843673486045E9, 0.0, 2023-07-20 11:01:13.486
150.0, -151.52247566252657, 0.0, 0.0, 0.0, 0.0, 0.0, 0.0, 0.0, 0.042, 0.22, 0.988, 192.0, 0.0, 0.0, 0.0, 0.0, 0.0, 0.0, 0.0, 0.0, 0.0, 1.6898436734860682E9, 0.0, 2023-07-20 11:01:13.486
151.0, -45.21757903308619, 0.0, 0.0, 0.0, 0.0, 0.0, 0.0, 0.0, 0.042, 0.22, 0.988, 192.0, 0.0, 0.0, 0.0, 0.0, 0.0, 0.0, 0.0, 0.0, 0.0, 1.6898436734860954E9, 0.0, 2023-07-20 11:01:13.486
152.0, 104.27088788400745, 0.0, 0.0, 0.0, 0.0, 0.0, 0.0, 0.0, 0.042, 0.22, 0.988, 192.0, 0.0, 0.0, 0.0, 0.0, 0.0, 0.0, 0.0, 0.0, 0.0, 1.68984367348621E9, 0.0, 2023-07-20 11:01:13.486
153.0, 75.41478579220603, 0.0, 0.0, 0.0, 0.0, 0.0, 0.0, 0.0, 0.042, 0.22, 0.988, 192.0, 0.0, 0.0, 0.0, 0.0, 0.0, 0.0, 0.0, 0.0, 0.0, 1.6898436734862947E9, 0.0, 2023-07-20 11:01:13.486
154.0, 29.034916047443875, 0.0, 0.0, 0.0, 0.0, 0.0, 0.0, 0.0, 0.042, 0.22, 0.988, 192.0, 0.0, 0.0, 0.0, 0.0, 0.0, 0.0, 0.0, 0.0, 0.0, 1.6898436734863224E9, 0.0, 2023-07-20 11:01:13.486
155.0, 24.005773544999784, 0.0, 0.0, 0.0, 0.0, 0.0, 0.0, 0.0, 0.046, 0.216, 0.988, 192.0, 1.0, 112.0, 6.0, 192.0, 30.0, 224.0, 0.0, 0.0, 0.0, 1.6898436734863472E9, 0.0, 2023-07-20 11:01:13.486
156.0, -48.63739593474817, 0.0, 0.0, 0.0, 0.0, 0.0, 0.0, 0.0, 0.046, 0.216, 0.988, 192.0, 0.0, 0.0, 0.0, 0.0, 0.0, 0.0, 0.0, 0.0, 0.0, 1.6898436734863753E9, 0.0, 2023-07-20 11:01:13.486
157.0, -74.47601252508314, 0.0, 0.0, 0.0, 0.0, 0.0, 0.0, 0.0, 0.046, 0.216, 0.988, 192.0, 0.0, 0.0, 0.0, 0.0, 0.0, 0.0, 0.0, 0.0, 0.0, 1.6898436734864023E9, 0.0, 2023-07-20 11:01:13.486
158.0, -137.84320805587865, 0.0, 0.0, 0.0, 0.0, 0.0, 0.0, 0.0, 0.046, 0.216, 0.988, 192.0, 0.0, 0.0, 0.0, 0.0, 0.0, 0.0, 0.0, 0.0, 0.0, 1.6898436734864254E9, 0.0, 2023-07-20 11:01:13.486
159.0, -148.23676922759643, 0.0, 0.0, 0.0, 0.0, 0.0, 0.0, 0.0, 0.046, 0.216, 0.988, 192.0, 0.0, 0.0, 0.0, 0.0, 0.0, 0.0, 0.0, 0.0, 0.0, 1.6898436734864492E9, 0.0, 2023-07-20 11:01:13.486
160.0, 26.24094799053049, 0.0, 0.0, 0.0, 0.0, 0.0, 0.0, 0.0, 0.046, 0.216, 0.988, 192.0, 0.0, 0.0, 0.0, 0.0, 0.0, 0.0, 0.0, 0.0, 0.0, 1.6898436734864693E9, 0.0, 2023-07-20 11:01:13.486
161.0, 130.9588707636441, 0.0, 0.0, 0.0, 0.0, 0.0, 0.0, 0.0, 0.046, 0.216, 0.988, 192.0, 0.0, 0.0, 0.0, 0.0, 0.0, 0.0, 0.0, 0.0, 0.0, 1.6898436734864929E9, 0.0, 2023-07-20 11:01:13.486
162.0, 139.18431272319708, 0.0, 0.0, 0.0, 0.0, 0.0, 0.0, 0.0, 0.046, 0.216, 0.988, 192.0, 0.0, 0.0, 0.0, 0.0, 0.0, 0.0, 0.0, 0.0, 0.0, 1.689843673486512E9, 0.0, 2023-07-20 11:01:13.486
163.0, 39.093201052332056, 0.0, 0.0, 0.0, 0.0, 0.0, 0.0, 0.0, 0.046, 0.216, 0.988, 192.0, 0.0, 0.0, 0.0, 0.0, 0.0, 0.0, 0.0, 0.0, 0.0, 1.689843673486535E9, 0.0, 2023-07-20 11:01:13.486
164.0, -150.51664716203777, 0.0, 0.0, 0.0, 0.0, 0.0, 0.0, 0.0, 0.046, 0.216, 0.988, 192.0, 0.0, 0.0, 0.0, 0.0, 0.0, 0.0, 0.0, 0.0, 0.0, 1.6898436734865575E9, 0.0, 2023-07-20 11:01:13.486
165.0, -153.04239428548746, 0.0, 0.0, 0.0, 0.0, 0.0, 0.0, 0.0, 0.046, 0.212, 0.986, 192.0, 1.0, 112.0, 6.0, 160.0, 30.0, 208.0, 0.0, 0.0, 0.0, 1.6898436734865801E9, 0.0, 2023-07-20 11:01:13.486
166.0, -82.90262018473389, 0.0, 0.0, 0.0, 0.0, 0.0, 0.0, 0.0, 0.046, 0.212, 0.986, 192.0, 0.0, 0.0, 0.0, 0.0, 0.0, 0.0, 0.0, 0.0, 0.0, 1.689843673486602E9, 0.0, 2023-07-20 11:01:13.486
167.0, -37.95326208511139, 0.0, 0.0, 0.0, 0.0, 0.0, 0.0, 0.0, 0.046, 0.212, 0.986, 192.0, 0.0, 0.0, 0.0, 0.0, 0.0, 0.0, 0.0, 0.0, 0.0, 1.689843673486626E9, 0.0, 2023-07-20 11:01:13.486
168.0, 42.04363132043258, 0.0, 0.0, 0.0, 0.0, 0.0, 0.0, 0.0, 0.046, 0.212, 0.986, 192.0, 0.0, 0.0, 0.0, 0.0, 0.0, 0.0, 0.0, 0.0, 0.0, 1.6898436734866512E9, 0.0, 2023-07-20 11:01:13.486
169.0, 29.817227103379622, 0.0, 0.0, 0.0, 0.0, 0.0, 0.0, 0.0, 0.046, 0.212, 0.986, 192.0, 0.0, 0.0, 0.0, 0.0, 0.0, 0.0, 0.0, 0.0, 0.0, 1.6898436734866748E9, 0.0, 2023-07-20 11:01:13.486
170.0, 60.19324781814192, 0.0, 0.0, 0.0, 0.0, 0.0, 0.0, 0.0, 0.046, 0.212, 0.986, 192.0, 0.0, 0.0, 0.0, 0.0, 0.0, 0.0, 0.0, 0.0, 0.0, 1.6898436734866943E9, 0.0, 2023-07-20 11:01:13.486
171.0, 92.67033251170308, 0.0, 0.0, 0.0, 0.0, 0.0, 0.0, 0.0, 0.046, 0.212, 0.986, 192.0, 0.0, 0.0, 0.0, 0.0, 0.0, 0.0, 0.0, 0.0, 0.0, 1.6898436734867163E9, 0.0, 2023-07-20 11:01:13.486
172.0, -40.367250486284554, 0.0, 0.0, 0.0, 0.0, 0.0, 0.0, 0.0, 0.046, 0.212, 0.986, 192.0, 0.0, 0.0, 0.0, 0.0, 0.0, 0.0, 0.0, 0.0, 0.0, 1.6898436734867368E9, 0.0, 2023-07-20 11:01:13.486
173.0, -136.56915862192616, 0.0, 0.0, 0.0, 0.0, 0.0, 0.0, 0.0, 0.046, 0.212, 0.986, 192.0, 0.0, 0.0, 0.0, 0.0, 0.0, 0.0, 0.0, 0.0, 0.0, 1.6898436734867556E9, 0.0, 2023-07-20 11:01:13.486
174.0, -184.73716792311288, 0.0, 0.0, 0.0, 0.0, 0.0, 0.0, 0.0, 0.046, 0.212, 0.986, 192.0, 0.0, 0.0, 0.0, 0.0, 0.0, 0.0, 0.0, 0.0, 0.0, 1.6898436734867768E9, 0.0, 2023-07-20 11:01:13.486
175.0, -117.21254792363024, 0.0, 0.0, 0.0, 0.0, 0.0, 0.0, 0.0, 0.044, 0.214, 0.982, 192.0, 1.0, 96.0, 6.0, 176.0, 30.0, 176.0, 0.0, 0.0, 0.0, 1.6898436734867983E9, 0.0, 2023-07-20 11:01:13.486
176.0, 95.17372789069748, 0.0, 0.0, 0.0, 0.0, 0.0, 0.0, 0.0, 0.044, 0.214, 0.982, 192.0, 0.0, 0.0, 0.0, 0.0, 0.0, 0.0, 0.0, 0.0, 0.0, 1.6898436734868202E9, 0.0, 2023-07-20 11:01:13.486
177.0, 139.9442720346775, 0.0, 0.0, 0.0, 0.0, 0.0, 0.0, 0.0, 0.044, 0.214, 0.982, 192.0, 0.0, 0.0, 0.0, 0.0, 0.0, 0.0, 0.0, 0.0, 0.0, 1.6898436734868417E9, 0.0, 2023-07-20 11:01:13.486
178.0, 77.5382015154602, 0.0, 0.0, 0.0, 0.0, 0.0, 0.0, 0.0, 0.044, 0.214, 0.982, 192.0, 0.0, 0.0, 0.0, 0.0, 0.0, 0.0, 0.0, 0.0, 0.0, 1.68984367348687E9, 0.0, 2023-07-20 11:01:13.486
179.0, -8.359552426284841, 0.0, 0.0, 0.0, 0.0, 0.0, 0.0, 0.0, 0.044, 0.214, 0.982, 192.0, 0.0, 0.0, 0.0, 0.0, 0.0, 0.0, 0.0, 0.0, 0.0, 1.6898436734868915E9, 0.0, 2023-07-20 11:01:13.486
180.0, -120.74412354756875, 0.0, 0.0, 0.0, 0.0, 0.0, 0.0, 0.0, 0.044, 0.214, 0.982, 192.0, 0.0, 0.0, 0.0, 0.0, 0.0, 0.0, 0.0, 0.0, 0.0, 1.6898436734869103E9, 0.0, 2023-07-20 11:01:13.486
181.0, -83.81904170740148, 0.0, 0.0, 0.0, 0.0, 0.0, 0.0, 0.0, 0.044, 0.214, 0.982, 192.0, 0.0, 0.0, 0.0, 0.0, 0.0, 0.0, 0.0, 0.0, 0.0, 1.6898436734869287E9, 0.0, 2023-07-20 11:01:13.486
182.0, -73.20196309113064, 0.0, 0.0, 0.0, 0.0, 0.0, 0.0, 0.0, 0.044, 0.214, 0.982, 192.0, 0.0, 0.0, 0.0, 0.0, 0.0, 0.0, 0.0, 0.0, 0.0, 1.6898436734869475E9, 0.0, 2023-07-20 11:01:13.486
183.0, -98.7723587480019, 0.0, 0.0, 0.0, 0.0, 0.0, 0.0, 0.0, 0.044, 0.214, 0.982, 192.0, 0.0, 0.0, 0.0, 0.0, 0.0, 0.0, 0.0, 0.0, 0.0, 1.6898436734869666E9, 0.0, 2023-07-20 11:01:13.486
184.0, -5.09619773581001, 0.0, 0.0, 0.0, 0.0, 0.0, 0.0, 0.0, 0.044, 0.214, 0.982, 192.0, 0.0, 0.0, 0.0, 0.0, 0.0, 0.0, 0.0, 0.0, 0.0, 1.689843673486986E9, 0.0, 2023-07-20 11:01:13.486
185.0, 58.74038442854696, 0.0, 0.0, 0.0, 0.0, 0.0, 0.0, 0.0, 0.042, 0.218, 0.982, 192.0, 1.0, 80.0, 6.0, 208.0, 30.0, 176.0, 0.0, 0.0, 0.0, 1.689843673487008E9, 0.0, 2023-07-20 11:01:13.487
186.0, 129.01426899603237, 0.0, 0.0, 0.0, 0.0, 0.0, 0.0, 0.0, 0.042, 0.218, 0.982, 192.0, 0.0, 0.0, 0.0, 0.0, 0.0, 0.0, 0.0, 0.0, 0.0, 1.6898436734870288E9, 0.0, 2023-07-20 11:01:13.487
187.0, 102.77332100550187, 0.0, 0.0, 0.0, 0.0, 0.0, 0.0, 0.0, 0.042, 0.218, 0.982, 192.0, 0.0, 0.0, 0.0, 0.0, 0.0, 0.0, 0.0, 0.0, 0.0, 1.6898436734870484E9, 0.0, 2023-07-20 11:01:13.487
188.0, -101.05223668244324, 0.0, 0.0, 0.0, 0.0, 0.0, 0.0, 0.0, 0.042, 0.218, 0.982, 192.0, 0.0, 0.0, 0.0, 0.0, 0.0, 0.0, 0.0, 0.0, 0.0, 1.6898436734870691E9, 0.0, 2023-07-20 11:01:13.487
189.0, -184.20072605618552, 0.0, 0.0, 0.0, 0.0, 0.0, 0.0, 0.0, 0.042, 0.218, 0.982, 192.0, 0.0, 0.0, 0.0, 0.0, 0.0, 0.0, 0.0, 0.0, 0.0, 1.6898436734870899E9, 0.0, 2023-07-20 11:01:13.487
190.0, -154.98699605309918, 0.0, 0.0, 0.0, 0.0, 0.0, 0.0, 0.0, 0.042, 0.218, 0.982, 192.0, 0.0, 0.0, 0.0, 0.0, 0.0, 0.0, 0.0, 0.0, 0.0, 1.6898436734871092E9, 0.0, 2023-07-20 11:01:13.487
191.0, -48.54798895692694, 0.0, 0.0, 0.0, 0.0, 0.0, 0.0, 0.0, 0.042, 0.218, 0.982, 192.0, 0.0, 0.0, 0.0, 0.0, 0.0, 0.0, 0.0, 0.0, 0.0, 1.6898436734871287E9, 0.0, 2023-07-20 11:01:13.487
192.0, 106.26019314052978, 0.0, 0.0, 0.0, 0.0, 0.0, 0.0, 0.0, 0.042, 0.218, 0.982, 192.0, 0.0, 0.0, 0.0, 0.0, 0.0, 0.0, 0.0, 0.0, 0.0, 1.6898436734871483E9, 0.0, 2023-07-20 11:01:13.487
193.0, 79.50515502752722, 0.0, 0.0, 0.0, 0.0, 0.0, 0.0, 0.0, 0.042, 0.218, 0.982, 192.0, 0.0, 0.0, 0.0, 0.0, 0.0, 0.0, 0.0, 0.0, 0.0, 1.689843673487167E9, 0.0, 2023-07-20 11:01:13.487
194.0, 29.90663408120085, 0.0, 0.0, 0.0, 0.0, 0.0, 0.0, 0.0, 0.042, 0.218, 0.982, 192.0, 0.0, 0.0, 0.0, 0.0, 0.0, 0.0, 0.0, 0.0, 0.0, 1.6898436734871857E9, 0.0, 2023-07-20 11:01:13.487
195.0, 20.63066013224842, 0.0, 0.0, 0.0, 0.0, 0.0, 0.0, 0.0, 0.044, 0.218, 0.986, 192.0, 1.0, 96.0, 6.0, 208.0, 30.0, 208.0, 0.0, 0.0, 0.0, 1.689843673487204E9, 0.0, 2023-07-20 11:01:13.487
196.0, -51.61017794730401, 0.0, 0.0, 0.0, 0.0, 0.0, 0.0, 0.0, 0.044, 0.218, 0.986, 192.0, 0.0, 0.0, 0.0, 0.0, 0.0, 0.0, 0.0, 0.0, 0.0, 1.689843673487222E9, 0.0, 2023-07-20 11:01:13.487
197.0, -72.88903866875633, 0.0, 0.0, 0.0, 0.0, 0.0, 0.0, 0.0, 0.044, 0.218, 0.986, 192.0, 0.0, 0.0, 0.0, 0.0, 0.0, 0.0, 0.0, 0.0, 0.0, 1.6898436734872415E9, 0.0, 2023-07-20 11:01:13.487
198.0, -133.39521090927255, 0.0, 0.0, 0.0, 0.0, 0.0, 0.0, 0.0, 0.044, 0.218, 0.986, 192.0, 0.0, 0.0, 0.0, 0.0, 0.0, 0.0, 0.0, 0.0, 0.0, 1.689843673487261E9, 0.0, 2023-07-20 11:01:13.487
199.0, -147.1191820048311, 0.0, 0.0, 0.0, 0.0, 0.0, 0.0, 0.0, 0.044, 0.218, 0.986, 192.0, 0.0, 0.0, 0.0, 0.0, 0.0, 0.0, 0.0, 0.0, 0.0, 1.6898436734872797E9, 0.0, 2023-07-20 11:01:13.487
200.0, 22.66466887768136, 0.0, 0.0, 0.0, 0.0, 0.0, 0.0, 0.0, 0.044, 0.218, 0.986, 192.0, 0.0, 0.0, 0.0, 0.0, 0.0, 0.0, 0.0, 0.0, 0.0, 1.6898436734873254E9, 0.0, 2023-07-20 11:01:13.487
201.0, 128.14255096227538, 0.0, 0.0, 0.0, 0.0, 0.0, 0.0, 0.0, 0.044, 0.218, 0.986, 192.0, 0.0, 0.0, 0.0, 0.0, 0.0, 0.0, 0.0, 0.0, 0.0, 1.6898436734873793E9, 0.0, 2023-07-20 11:01:13.487
202.0, 141.03950751298757, 0.0, 0.0, 0.0, 0.0, 0.0, 0.0, 0.0, 0.044, 0.218, 0.986, 192.0, 0.0, 0.0, 0.0, 0.0, 0.0, 0.0, 0.0, 0.0, 0.0, 1.6898436734874141E9, 0.0, 2023-07-20 11:01:13.487
203.0, 42.98240458755548, 0.0, 0.0, 0.0, 0.0, 0.0, 0.0, 0.0, 0.044, 0.218, 0.986, 192.0, 0.0, 0.0, 0.0, 0.0, 0.0, 0.0, 0.0, 0.0, 0.0, 1.6898436734874332E9, 0.0, 2023-07-20 11:01:13.487
204.0, -149.57787389491486, 0.0, 0.0, 0.0, 0.0, 0.0, 0.0, 0.0, 0.044, 0.218, 0.986, 192.0, 0.0, 0.0, 0.0, 0.0, 0.0, 0.0, 0.0, 0.0, 0.0, 1.689843673487452E9, 0.0, 2023-07-20 11:01:13.487
205.0, -156.14928676477513, 0.0, 0.0, 0.0, 0.0, 0.0, 0.0, 0.0, 0.044, 0.216, 0.982, 192.0, 1.0, 96.0, 6.0, 192.0, 30.0, 176.0, 0.0, 0.0, 0.0, 1.68984367348747E9, 0.0, 2023-07-20 11:01:13.487
206.0, -86.07656789738749, 0.0, 0.0, 0.0, 0.0, 0.0, 0.0, 0.0, 0.044, 0.216, 0.982, 192.0, 0.0, 0.0, 0.0, 0.0, 0.0, 0.0, 0.0, 0.0, 0.0, 1.6898436734874887E9, 0.0, 2023-07-20 11:01:13.487
207.0, -36.008660317499675, 0.0, 0.0, 0.0, 0.0, 0.0, 0.0, 0.0, 0.044, 0.216, 0.982, 192.0, 0.0, 0.0, 0.0, 0.0, 0.0, 0.0, 0.0, 0.0, 0.0, 1.6898436734875078E9, 0.0, 2023-07-20 11:01:13.487
208.0, 46.156352300209086, 0.0, 0.0, 0.0, 0.0, 0.0, 0.0, 0.0, 0.044, 0.216, 0.982, 192.0, 0.0, 0.0, 0.0, 0.0, 0.0, 0.0, 0.0, 0.0, 0.0, 1.6898436734875283E9, 0.0, 2023-07-20 11:01:13.487
209.0, 30.264261992485764, 0.0, 0.0, 0.0, 0.0, 0.0, 0.0, 0.0, 0.044, 0.216, 0.982, 192.0, 0.0, 0.0, 0.0, 0.0, 0.0, 0.0, 0.0, 0.0, 0.0, 1.6898436734875467E9, 0.0, 2023-07-20 11:01:13.487
210.0, 57.42163150568384, 0.0, 0.0, 0.0, 0.0, 0.0, 0.0, 0.0, 0.044, 0.216, 0.982, 192.0, 0.0, 0.0, 0.0, 0.0, 0.0, 0.0, 0.0, 0.0, 0.0, 1.6898436734875658E9, 0.0, 2023-07-20 11:01:13.487
211.0, 90.36810283280646, 0.0, 0.0, 0.0, 0.0, 0.0, 0.0, 0.0, 0.044, 0.216, 0.982, 192.0, 0.0, 0.0, 0.0, 0.0, 0.0, 0.0, 0.0, 0.0, 0.0, 1.6898436734875877E9, 0.0, 2023-07-20 11:01:13.487
212.0, -38.57911092985999, 0.0, 0.0, 0.0, 0.0, 0.0, 0.0, 0.0, 0.044, 0.216, 0.982, 192.0, 0.0, 0.0, 0.0, 0.0, 0.0, 0.0, 0.0, 0.0, 0.0, 1.6898436734876108E9, 0.0, 2023-07-20 11:01:13.487
213.0, -131.78588530849044, 0.0, 0.0, 0.0, 0.0, 0.0, 0.0, 0.0, 0.044, 0.216, 0.982, 192.0, 0.0, 0.0, 0.0, 0.0, 0.0, 0.0, 0.0, 0.0, 0.0, 1.6898436734876375E9, 0.0, 2023-07-20 11:01:13.487
214.0, -183.17254581124138, 0.0, 0.0, 0.0, 0.0, 0.0, 0.0, 0.0, 0.044, 0.216, 0.982, 192.0, 0.0, 0.0, 0.0, 0.0, 0.0, 0.0, 0.0, 0.0, 0.0, 1.689843673487657E9, 0.0, 2023-07-20 11:01:13.487
215.0, -120.94528924766652, 0.0, 0.0, 0.0, 0.0, 0.0, 0.0, 0.0, 0.038, 0.214, 0.982, 192.0, 1.0, 48.0, 6.0, 176.0, 30.0, 176.0, 0.0, 0.0, 0.0, 1.689843673487678E9, 0.0, 2023-07-20 11:01:13.487
216.0, 92.29035285596287, 0.0, 0.0, 0.0, 0.0, 0.0, 0.0, 0.0, 0.038, 0.214, 0.982, 192.0, 0.0, 0.0, 0.0, 0.0, 0.0, 0.0, 0.0, 0.0, 0.0, 1.6898436734878092E9, 0.0, 2023-07-20 11:01:13.487
217.0, 141.62065286882554, 0.0, 0.0, 0.0, 0.0, 0.0, 0.0, 0.0, 0.038, 0.214, 0.982, 192.0, 0.0, 0.0, 0.0, 0.0, 0.0, 0.0, 0.0, 0.0, 0.0, 1.689843673487842E9, 0.0, 2023-07-20 11:01:13.487
218.0, 82.36617831780653, 0.0, 0.0, 0.0, 0.0, 0.0, 0.0, 0.0, 0.038, 0.214, 0.982, 192.0, 0.0, 0.0, 0.0, 0.0, 0.0, 0.0, 0.0, 0.0, 0.0, 1.6898436734878683E9, 0.0, 2023-07-20 11:01:13.487
219.0, -7.286668692430102, 0.0, 0.0, 0.0, 0.0, 0.0, 0.0, 0.0, 0.038, 0.214, 0.982, 192.0, 0.0, 0.0, 0.0, 0.0, 0.0, 0.0, 0.0, 0.0, 0.0, 1.6898436734878883E9, 0.0, 2023-07-20 11:01:13.487
220.0, -124.07453347140951, 0.0, 0.0, 0.0, 0.0, 0.0, 0.0, 0.0, 0.038, 0.214, 0.982, 192.0, 0.0, 0.0, 0.0, 0.0, 0.0, 0.0, 0.0, 0.0, 0.0, 1.6898436734879084E9, 0.0, 2023-07-20 11:01:13.487
221.0, -87.30591384242939, 0.0, 0.0, 0.0, 0.0, 0.0, 0.0, 0.0, 0.038, 0.214, 0.982, 192.0, 0.0, 0.0, 0.0, 0.0, 0.0, 0.0, 0.0, 0.0, 0.0, 1.6898436734879289E9, 0.0, 2023-07-20 11:01:13.487
222.0, -71.8608584238122, 0.0, 0.0, 0.0, 0.0, 0.0, 0.0, 0.0, 0.038, 0.214, 0.982, 192.0, 0.0, 0.0, 0.0, 0.0, 0.0, 0.0, 0.0, 0.0, 0.0, 1.689843673487948E9, 0.0, 2023-07-20 11:01:13.487
223.0, -95.01726567951032, 0.0, 0.0, 0.0, 0.0, 0.0, 0.0, 0.0, 0.038, 0.214, 0.982, 192.0, 0.0, 0.0, 0.0, 0.0, 0.0, 0.0, 0.0, 0.0, 0.0, 1.68984367348797E9, 0.0, 2023-07-20 11:01:13.487
224.0, -3.889203535223429, 0.0, 0.0, 0.0, 0.0, 0.0, 0.0, 0.0, 0.038, 0.214, 0.982, 192.0, 0.0, 0.0, 0.0, 0.0, 0.0, 0.0, 0.0, 0.0, 0.0, 1.6898436734879909E9, 0.0, 2023-07-20 11:01:13.487
225.0, 55.812305904901734, 0.0, 0.0, 0.0, 0.0, 0.0, 0.0, 0.0, 0.038, 0.214, 0.986, 192.0, 1.0, 48.0, 6.0, 176.0, 30.0, 208.0, 0.0, 0.0, 0.0, 1.6898436734880111E9, 0.0, 2023-07-20 11:01:13.488
226.0, 126.55557710594859, 0.0, 0.0, 0.0, 0.0, 0.0, 0.0, 0.0, 0.038, 0.214, 0.986, 192.0, 0.0, 0.0, 0.0, 0.0, 0.0, 0.0, 0.0, 0.0, 0.0, 1.689843673488032E9, 0.0, 2023-07-20 11:01:13.488
227.0, 104.62851579529236, 0.0, 0.0, 0.0, 0.0, 0.0, 0.0, 0.0, 0.038, 0.214, 0.986, 192.0, 0.0, 0.0, 0.0, 0.0, 0.0, 0.0, 0.0, 0.0, 0.0, 1.689843673488053E9, 0.0, 2023-07-20 11:01:13.488
228.0, -96.71599825811366, 0.0, 0.0, 0.0, 0.0, 0.0, 0.0, 0.0, 0.038, 0.214, 0.986, 192.0, 0.0, 0.0, 0.0, 0.0, 0.0, 0.0, 0.0, 0.0, 0.0, 1.6898436734880736E9, 0.0, 2023-07-20 11:01:13.488
229.0, -182.74786266659055, 0.0, 0.0, 0.0, 0.0, 0.0, 0.0, 0.0, 0.038, 0.214, 0.986, 192.0, 0.0, 0.0, 0.0, 0.0, 0.0, 0.0, 0.0, 0.0, 0.0, 1.6898436734880967E9, 0.0, 2023-07-20 11:01:13.488
230.0, -158.42916469921647, 0.0, 0.0, 0.0, 0.0, 0.0, 0.0, 0.0, 0.038, 0.214, 0.986, 192.0, 0.0, 0.0, 0.0, 0.0, 0.0, 0.0, 0.0, 0.0, 0.0, 1.6898436734881177E9, 0.0, 2023-07-20 11:01:13.488
231.0, -51.43136399166155, 0.0, 0.0, 0.0, 0.0, 0.0, 0.0, 0.0, 0.038, 0.214, 0.986, 192.0, 0.0, 0.0, 0.0, 0.0, 0.0, 0.0, 0.0, 0.0, 0.0, 1.6898436734881384E9, 0.0, 2023-07-20 11:01:13.488
232.0, 107.44483559666105, 0.0, 0.0, 0.0, 0.0, 0.0, 0.0, 0.0, 0.038, 0.214, 0.986, 192.0, 0.0, 0.0, 0.0, 0.0, 0.0, 0.0, 0.0, 0.0, 0.0, 1.6898436734881587E9, 0.0, 2023-07-20 11:01:13.488
233.0, 83.61787600730372, 0.0, 0.0, 0.0, 0.0, 0.0, 0.0, 0.0, 0.038, 0.214, 0.986, 192.0, 0.0, 0.0, 0.0, 0.0, 0.0, 0.0, 0.0, 0.0, 0.0, 1.6898436734881792E9, 0.0, 2023-07-20 11:01:13.488
234.0, 30.59953815931537, 0.0, 0.0, 0.0, 0.0, 0.0, 0.0, 0.0, 0.038, 0.214, 0.986, 192.0, 0.0, 0.0, 0.0, 0.0, 0.0, 0.0, 0.0, 0.0, 0.0, 1.6898436734882E9, 0.0, 2023-07-20 11:01:13.488
235.0, 16.763808341480296, 0.0, 0.0, 0.0, 0.0, 0.0, 0.0, 0.0, 0.044, 0.21, 0.982, 192.0, 1.0, 96.0, 6.0, 144.0, 30.0, 176.0, 0.0, 0.0, 0.0, 1.689843673488221E9, 0.0, 2023-07-20 11:01:13.488
236.0, -54.225332048574934, 0.0, 0.0, 0.0, 0.0, 0.0, 0.0, 0.0, 0.044, 0.21, 0.982, 192.0, 0.0, 0.0, 0.0, 0.0, 0.0, 0.0, 0.0, 0.0, 0.0, 1.6898436734882414E9, 0.0, 2023-07-20 11:01:13.488
237.0, -70.67621596768093, 0.0, 0.0, 0.0, 0.0, 0.0, 0.0, 0.0, 0.044, 0.21, 0.982, 192.0, 0.0, 0.0, 0.0, 0.0, 0.0, 0.0, 0.0, 0.0, 0.0, 1.6898436734882631E9, 0.0, 2023-07-20 11:01:13.488
238.0, -128.90251027375584, 0.0, 0.0, 0.0, 0.0, 0.0, 0.0, 0.0, 0.044, 0.21, 0.982, 192.0, 0.0, 0.0, 0.0, 0.0, 0.0, 0.0, 0.0, 0.0, 0.0, 1.6898436734882832E9, 0.0, 2023-07-20 11:01:13.488
239.0, -146.18040873770818, 0.0, 0.0, 0.0, 0.0, 0.0, 0.0, 0.0, 0.044, 0.21, 0.982, 192.0, 0.0, 0.0, 0.0, 0.0, 0.0, 0.0, 0.0, 0.0, 0.0, 1.689843673488303E9, 0.0, 2023-07-20 11:01:13.488
240.0, 19.758942098491442, 0.0, 0.0, 0.0, 0.0, 0.0, 0.0, 0.0, 0.044, 0.21, 0.982, 192.0, 0.0, 0.0, 0.0, 0.0, 0.0, 0.0, 0.0, 0.0, 0.0, 1.6898436739649255E9, 0.0, 2023-07-20 11:01:13.964
241.0, 125.23682418308547, 0.0, 0.0, 0.0, 0.0, 0.0, 0.0, 0.0, 0.044, 0.21, 0.982, 192.0, 0.0, 0.0, 0.0, 0.0, 0.0, 0.0, 0.0, 0.0, 0.0, 1.6898436739649765E9, 0.0, 2023-07-20 11:01:13.964
242.0, 142.58177788040376, 0.0, 0.0, 0.0, 0.0, 0.0, 0.0, 0.0, 0.044, 0.21, 0.982, 192.0, 0.0, 0.0, 0.0, 0.0, 0.0, 0.0, 0.0, 0.0, 0.0, 1.6898436739650097E9, 0.0, 2023-07-20 11:01:13.965
243.0, 47.02807033396606, 0.0, 0.0, 0.0, 0.0, 0.0, 0.0, 0.0, 0.044, 0.21, 0.982, 192.0, 0.0, 0.0, 0.0, 0.0, 0.0, 0.0, 0.0, 0.0, 0.0, 1.6898436739650433E9, 0.0, 2023-07-20 11:01:13.965
244.0, -149.0190802835322, 0.0, 0.0, 0.0, 0.0, 0.0, 0.0, 0.0, 0.044, 0.21, 0.982, 192.0, 0.0, 0.0, 0.0, 0.0, 0.0, 0.0, 0.0, 0.0, 0.0, 1.689843673965073E9, 0.0, 2023-07-20 11:01:13.965
245.0, -159.92673157772202, 0.0, 0.0, 0.0, 0.0, 0.0, 0.0, 0.0, 0.042, 0.214, 0.982, 192.0, 1.0, 80.0, 6.0, 176.0, 30.0, 176.0, 0.0, 0.0, 0.0, 1.689843673965103E9, 0.0, 2023-07-20 11:01:13.965
246.0, -88.98229467657741, 0.0, 0.0, 0.0, 0.0, 0.0, 0.0, 0.0, 0.042, 0.214, 0.982, 192.0, 0.0, 0.0, 0.0, 0.0, 0.0, 0.0, 0.0, 0.0, 0.0, 1.6898436739651332E9, 0.0, 2023-07-20 11:01:13.965
247.0, -34.824017861368404, 0.0, 0.0, 0.0, 0.0, 0.0, 0.0, 0.0, 0.042, 0.214, 0.982, 192.0, 0.0, 0.0, 0.0, 0.0, 0.0, 0.0, 0.0, 0.0, 0.0, 1.689843673965163E9, 0.0, 2023-07-20 11:01:13.965
248.0, 50.13496281325374, 0.0, 0.0, 0.0, 0.0, 0.0, 0.0, 0.0, 0.042, 0.214, 0.982, 192.0, 0.0, 0.0, 0.0, 0.0, 0.0, 0.0, 0.0, 0.0, 0.0, 1.6898436739651816E9, 0.0, 2023-07-20 11:01:13.965
249.0, 31.605366659804186, 0.0, 0.0, 0.0, 0.0, 0.0, 0.0, 0.0, 0.042, 0.214, 0.982, 192.0, 0.0, 0.0, 0.0, 0.0, 0.0, 0.0, 0.0, 0.0, 0.0, 1.689843673965201E9, 0.0, 2023-07-20 11:01:13.965
250.0, 53.66653843719226, 0.0, 0.0, 0.0, 0.0, 0.0, 0.0, 0.0, 0.042, 0.214, 0.982, 192.0, 0.0, 0.0, 0.0, 0.0, 0.0, 0.0, 0.0, 0.0, 0.0, 1.689843673965228E9, 0.0, 2023-07-20 11:01:13.965
251.0, 87.21650686460816, 0.0, 0.0, 0.0, 0.0, 0.0, 0.0, 0.0, 0.042, 0.214, 0.982, 192.0, 0.0, 0.0, 0.0, 0.0, 0.0, 0.0, 0.0, 0.0, 0.0, 1.6898436739652493E9, 0.0, 2023-07-20 11:01:13.965
252.0, -36.858026606801346, 0.0, 0.0, 0.0, 0.0, 0.0, 0.0, 0.0, 0.042, 0.214, 0.982, 192.0, 0.0, 0.0, 0.0, 0.0, 0.0, 0.0, 0.0, 0.0, 0.0, 1.6898436739652696E9, 0.0, 2023-07-20 11:01:13.965
253.0, -127.71786781762455, 0.0, 0.0, 0.0, 0.0, 0.0, 0.0, 0.0, 0.042, 0.214, 0.982, 192.0, 0.0, 0.0, 0.0, 0.0, 0.0, 0.0, 0.0, 0.0, 0.0, 1.6898436739652903E9, 0.0, 2023-07-20 11:01:13.965
254.0, -182.07731033293132, 0.0, 0.0, 0.0, 0.0, 0.0, 0.0, 0.0, 0.042, 0.214, 0.982, 192.0, 0.0, 0.0, 0.0, 0.0, 0.0, 0.0, 0.0, 0.0, 0.0, 1.6898436739653113E9, 0.0, 2023-07-20 11:01:13.965
255.0, -124.3651061493285, 0.0, 0.0, 0.0, 0.0, 0.0, 0.0, 0.0, 0.046, 0.214, 0.986, 192.0, 1.0, 112.0, 6.0, 176.0, 30.0, 208.0, 0.0, 0.0, 0.0, 1.6898436739653327E9, 0.0, 2023-07-20 11:01:13.965
0.0, 89.07170165439865, 0.0, 0.0, 0.0, 0.0, 0.0, 0.0, 0.0, 0.046, 0.214, 0.986, 192.0, 0.0, 0.0, 0.0, 0.0, 0.0, 0.0, 0.0, 0.0, 0.0, 1.6898436739653535E9, 0.0, 2023-07-20 11:01:13.965
1.0, 143.14057149178643, 0.0, 0.0, 0.0, 0.0, 0.0, 0.0, 0.0, 0.046, 0.214, 0.986, 192.0, 0.0, 0.0, 0.0, 0.0, 0.0, 0.0, 0.0, 0.0, 0.0, 1.6898436739654045E9, 0.0, 2023-07-20 11:01:13.965
2.0, 86.05421615293218, 0.0, 0.0, 0.0, 0.0, 0.0, 0.0, 0.0, 0.046, 0.214, 0.986, 192.0, 0.0, 0.0, 0.0, 0.0, 0.0, 0.0, 0.0, 0.0, 0.0, 1.689843673965441E9, 0.0, 2023-07-20 11:01:13.965
3.0, -6.280840191941285, 0.0, 0.0, 0.0, 0.0, 0.0, 0.0, 0.0, 0.046, 0.214, 0.986, 192.0, 0.0, 0.0, 0.0, 0.0, 0.0, 0.0, 0.0, 0.0, 0.0, 1.6898436739654636E9, 0.0, 2023-07-20 11:01:13.965
4.0, -127.51670211752679, 0.0, 0.0, 0.0, 0.0, 0.0, 0.0, 0.0, 0.046, 0.214, 0.986, 192.0, 0.0, 0.0, 0.0, 0.0, 0.0, 0.0, 0.0, 0.0, 0.0, 1.689843673965484E9, 0.0, 2023-07-20 11:01:13.965
5.0, -89.67519875469193, 0.0, 0.0, 0.0, 0.0, 0.0, 0.0, 0.0, 0.046, 0.214, 0.986, 192.0, 0.0, 0.0, 0.0, 0.0, 0.0, 0.0, 0.0, 0.0, 0.0, 1.689843673965504E9, 0.0, 2023-07-20 11:01:13.965
6.0, -70.36329154530664, 0.0, 0.0, 0.0, 0.0, 0.0, 0.0, 0.0, 0.046, 0.214, 0.986, 192.0, 0.0, 0.0, 0.0, 0.0, 0.0, 0.0, 0.0, 0.0, 0.0, 1.6898436739655237E9, 0.0, 2023-07-20 11:01:13.965
7.0, -90.56926853290422, 0.0, 0.0, 0.0, 0.0, 0.0, 0.0, 0.0, 0.046, 0.214, 0.986, 192.0, 0.0, 0.0, 0.0, 0.0, 0.0, 0.0, 0.0, 0.0, 0.0, 1.6898436739655435E9, 0.0, 2023-07-20 11:01:13.965
8.0, -2.838671545823997, 0.0, 0.0, 0.0, 0.0, 0.0, 0.0, 0.0, 0.046, 0.214, 0.986, 192.0, 0.0, 0.0, 0.0, 0.0, 0.0, 0.0, 0.0, 0.0, 0.0, 1.689843673965563E9, 0.0, 2023-07-20 11:01:13.965
9.0, 52.05721283641015, 0.0, 0.0, 0.0, 0.0, 0.0, 0.0, 0.0, 0.048, 0.216, 0.984, 192.0, 1.0, 128.0, 6.0, 192.0, 30.0, 192.0, 0.0, 0.0, 0.0, 1.6898436739655845E9, 0.0, 2023-07-20 11:01:13.965
10.0, 123.1134084598313, 0.0, 0.0, 0.0, 0.0, 0.0, 0.0, 0.0, 0.048, 0.216, 0.984, 192.0, 0.0, 0.0, 0.0, 0.0, 0.0, 0.0, 0.0, 0.0, 0.0, 1.6898436739656112E9, 0.0, 2023-07-20 11:01:13.965
11.0, 105.7237512736024, 0.0, 0.0, 0.0, 0.0, 0.0, 0.0, 0.0, 0.048, 0.216, 0.984, 192.0, 0.0, 0.0, 0.0, 0.0, 0.0, 0.0, 0.0, 0.0, 0.0, 1.6898436739656386E9, 0.0, 2023-07-20 11:01:13.965
12.0, -93.25147786754107, 0.0, 0.0, 0.0, 0.0, 0.0, 0.0, 0.0, 0.048, 0.216, 0.984, 192.0, 0.0, 0.0, 0.0, 0.0, 0.0, 0.0, 0.0, 0.0, 0.0, 1.6898436739656596E9, 0.0, 2023-07-20 11:01:13.965
13.0, -181.60792369936988, 0.0, 0.0, 0.0, 0.0, 0.0, 0.0, 0.0, 0.048, 0.216, 0.984, 192.0, 0.0, 0.0, 0.0, 0.0, 0.0, 0.0, 0.0, 0.0, 0.0, 1.6898436739656787E9, 0.0, 2023-07-20 11:01:13.965
14.0, -161.29018798949576, 0.0, 0.0, 0.0, 0.0, 0.0, 0.0, 0.0, 0.048, 0.216, 0.984, 192.0, 0.0, 0.0, 0.0, 0.0, 0.0, 0.0, 0.0, 0.0, 0.0, 1.6898436739656985E9, 0.0, 2023-07-20 11:01:13.965
15.0, -53.77829715946879, 0.0, 0.0, 0.0, 0.0, 0.0, 0.0, 0.0, 0.048, 0.216, 0.984, 192.0, 0.0, 0.0, 0.0, 0.0, 0.0, 0.0, 0.0, 0.0, 0.0, 1.6898436739657178E9, 0.0, 2023-07-20 11:01:13.965
16.0, 108.85299549734539, 0.0, 0.0, 0.0, 0.0, 0.0, 0.0, 0.0, 0.048, 0.216, 0.984, 192.0, 0.0, 0.0, 0.0, 0.0, 0.0, 0.0, 0.0, 0.0, 0.0, 1.689843673965737E9, 0.0, 2023-07-20 11:01:13.965
17.0, 87.3282655868847, 0.0, 0.0, 0.0, 0.0, 0.0, 0.0, 0.0, 0.048, 0.216, 0.984, 192.0, 0.0, 0.0, 0.0, 0.0, 0.0, 0.0, 0.0, 0.0, 0.0, 1.689843673965757E9, 0.0, 2023-07-20 11:01:13.965
18.0, 32.20886376009748, 0.0, 0.0, 0.0, 0.0, 0.0, 0.0, 0.0, 0.048, 0.216, 0.984, 192.0, 0.0, 0.0, 0.0, 0.0, 0.0, 0.0, 0.0, 0.0, 0.0, 1.6898436739657772E9, 0.0, 2023-07-20 11:01:13.965
19.0, 13.478101906550158, 0.0, 0.0, 0.0, 0.0, 0.0, 0.0, 0.0, 0.046, 0.212, 0.98, 192.0, 1.0, 112.0, 6.0, 160.0, 30.0, 160.0, 0.0, 0.0, 0.0, 1.6898436739657962E9, 0.0, 2023-07-20 11:01:13.965
20.0, -57.55574197241569, 0.0, 0.0, 0.0, 0.0, 0.0, 0.0, 0.0, 0.046, 0.212, 0.98, 192.0, 0.0, 0.0, 0.0, 0.0, 0.0, 0.0, 0.0, 0.0, 0.0, 1.6898436739658153E9, 0.0, 2023-07-20 11:01:13.965
21.0, -69.9609601451111, 0.0, 0.0, 0.0, 0.0, 0.0, 0.0, 0.0, 0.046, 0.212, 0.98, 192.0, 0.0, 0.0, 0.0, 0.0, 0.0, 0.0, 0.0, 0.0, 0.0, 1.6898436739658356E9, 0.0, 2023-07-20 11:01:13.965
22.0, -125.68385907219161, 0.0, 0.0, 0.0, 0.0, 0.0, 0.0, 0.0, 0.046, 0.212, 0.98, 192.0, 0.0, 0.0, 0.0, 0.0, 0.0, 0.0, 0.0, 0.0, 0.0, 1.6898436739658556E9, 0.0, 2023-07-20 11:01:13.965
23.0, -144.99576628157692, 0.0, 0.0, 0.0, 0.0, 0.0, 0.0, 0.0, 0.046, 0.212, 0.98, 192.0, 0.0, 0.0, 0.0, 0.0, 0.0, 0.0, 0.0, 0.0, 0.0, 1.6898436739658756E9, 0.0, 2023-07-20 11:01:13.965
24.0, 15.668572863170251, 0.0, 0.0, 0.0, 0.0, 0.0, 0.0, 0.0, 0.046, 0.212, 0.98, 192.0, 0.0, 0.0, 0.0, 0.0, 0.0, 0.0, 0.0, 0.0, 0.0, 1.6898436739658947E9, 0.0, 2023-07-20 11:01:13.965
25.0, 122.28639391498494, 0.0, 0.0, 0.0, 0.0, 0.0, 0.0, 0.0, 0.046, 0.212, 0.98, 192.0, 0.0, 0.0, 0.0, 0.0, 0.0, 0.0, 0.0, 0.0, 0.0, 1.6898436739659152E9, 0.0, 2023-07-20 11:01:13.965
26.0, 144.23580697009646, 0.0, 0.0, 0.0, 0.0, 0.0, 0.0, 0.0, 0.046, 0.212, 0.98, 192.0, 0.0, 0.0, 0.0, 0.0, 0.0, 0.0, 0.0, 0.0, 0.0, 1.6898436739659348E9, 0.0, 2023-07-20 11:01:13.965
27.0, 50.82786689136826, 0.0, 0.0, 0.0, 0.0, 0.0, 0.0, 0.0, 0.046, 0.212, 0.98, 192.0, 0.0, 0.0, 0.0, 0.0, 0.0, 0.0, 0.0, 0.0, 0.0, 1.689843673965954E9, 0.0, 2023-07-20 11:01:13.965
28.0, -147.65562387175845, 0.0, 0.0, 0.0, 0.0, 0.0, 0.0, 0.0, 0.046, 0.212, 0.98, 192.0, 0.0, 0.0, 0.0, 0.0, 0.0, 0.0, 0.0, 0.0, 0.0, 1.689843673965974E9, 0.0, 2023-07-20 11:01:13.965
29.0, -163.07832754592033, 0.0, 0.0, 0.0, 0.0, 0.0, 0.0, 0.0, 0.044, 0.218, 0.978, 192.0, 1.0, 96.0, 6.0, 208.0, 30.0, 144.0, 0.0, 0.0, 0.0, 1.6898436739659936E9, 0.0, 2023-07-20 11:01:13.965
30.0, -91.55274528893773, 0.0, 0.0, 0.0, 0.0, 0.0, 0.0, 0.0, 0.044, 0.218, 0.978, 192.0, 0.0, 0.0, 0.0, 0.0, 0.0, 0.0, 0.0, 0.0, 0.0, 1.6898436739660132E9, 0.0, 2023-07-20 11:01:13.966
31.0, -33.16998877167568, 0.0, 0.0, 0.0, 0.0, 0.0, 0.0, 0.0, 0.044, 0.218, 0.978, 192.0, 0.0, 0.0, 0.0, 0.0, 0.0, 0.0, 0.0, 0.0, 0.0, 1.689843673966034E9, 0.0, 2023-07-20 11:01:13.966
32.0, 54.225332048574934, 0.0, 0.0, 0.0, 0.0, 0.0, 0.0, 0.0, 0.044, 0.218, 0.978, 192.0, 0.0, 0.0, 0.0, 0.0, 0.0, 0.0, 0.0, 0.0, 0.0, 1.6898436739660542E9, 0.0, 2023-07-20 11:01:13.966
33.0, 32.94647132712261, 0.0, 0.0, 0.0, 0.0, 0.0, 0.0, 0.0, 0.044, 0.218, 0.978, 192.0, 0.0, 0.0, 0.0, 0.0, 0.0, 0.0, 0.0, 0.0, 0.0, 1.689843673966074E9, 0.0, 2023-07-20 11:01:13.966
34.0, 51.14079131374256, 0.0, 0.0, 0.0, 0.0, 0.0, 0.0, 0.0, 0.044, 0.218, 0.978, 192.0, 0.0, 0.0, 0.0, 0.0, 0.0, 0.0, 0.0, 0.0, 0.0, 1.6898436739660945E9, 0.0, 2023-07-20 11:01:13.966
35.0, 84.8472219523456, 0.0, 0.0, 0.0, 0.0, 0.0, 0.0, 0.0, 0.044, 0.218, 0.978, 192.0, 0.0, 0.0, 0.0, 0.0, 0.0, 0.0, 0.0, 0.0, 0.0, 1.6898436739661143E9, 0.0, 2023-07-20 11:01:13.966
36.0, -35.85219810631253, 0.0, 0.0, 0.0, 0.0, 0.0, 0.0, 0.0, 0.044, 0.218, 0.978, 192.0, 0.0, 0.0, 0.0, 0.0, 0.0, 0.0, 0.0, 0.0, 0.0, 1.6898436739661348E9, 0.0, 2023-07-20 11:01:13.966
37.0, -124.65567882724748, 0.0, 0.0, 0.0, 0.0, 0.0, 0.0, 0.0, 0.044, 0.218, 0.978, 192.0, 0.0, 0.0, 0.0, 0.0, 0.0, 0.0, 0.0, 0.0, 0.0, 1.689843673966155E9, 0.0, 2023-07-20 11:01:13.966
38.0, -180.57974345442577, 0.0, 0.0, 0.0, 0.0, 0.0, 0.0, 0.0, 0.044, 0.218, 0.978, 192.0, 0.0, 0.0, 0.0, 0.0, 0.0, 0.0, 0.0, 0.0, 0.0, 1.6898436739661753E9, 0.0, 2023-07-20 11:01:13.966
39.0, -126.95790850614412, 0.0, 0.0, 0.0, 0.0, 0.0, 0.0, 0.0, 0.044, 0.224, 0.978, 192.0, 1.0, 96.0, 7.0, 0.0, 30.0, 144.0, 0.0, 0.0, 0.0, 1.689843673966196E9, 0.0, 2023-07-20 11:01:13.966
40.0, 87.060044653421, 0.0, 0.0, 0.0, 0.0, 0.0, 0.0, 0.0, 0.044, 0.224, 0.978, 192.0, 0.0, 0.0, 0.0, 0.0, 0.0, 0.0, 0.0, 0.0, 0.0, 1.6898436739662158E9, 0.0, 2023-07-20 11:01:13.966
41.0, 144.68284185920263, 0.0, 0.0, 0.0, 0.0, 0.0, 0.0, 0.0, 0.044, 0.224, 0.978, 192.0, 0.0, 0.0, 0.0, 0.0, 0.0, 0.0, 0.0, 0.0, 0.0, 1.689843673966236E9, 0.0, 2023-07-20 11:01:13.966
42.0, 89.47403305459417, 0.0, 0.0, 0.0, 0.0, 0.0, 0.0, 0.0, 0.044, 0.224, 0.978, 192.0, 0.0, 0.0, 0.0, 0.0, 0.0, 0.0, 0.0, 0.0, 0.0, 1.6898436739662552E9, 0.0, 2023-07-20 11:01:13.966
43.0, -5.051494246899396, 0.0, 0.0, 0.0, 0.0, 0.0, 0.0, 0.0, 0.044, 0.224, 0.978, 192.0, 0.0, 0.0, 0.0, 0.0, 0.0, 0.0, 0.0, 0.0, 0.0, 1.6898436739662747E9, 0.0, 2023-07-20 11:01:13.966
44.0, -130.44478064117203, 0.0, 0.0, 0.0, 0.0, 0.0, 0.0, 0.0, 0.044, 0.224, 0.978, 192.0, 0.0, 0.0, 0.0, 0.0, 0.0, 0.0, 0.0, 0.0, 0.0, 1.6898436739662948E9, 0.0, 2023-07-20 11:01:13.966
45.0, -92.91620170071145, 0.0, 0.0, 0.0, 0.0, 0.0, 0.0, 0.0, 0.044, 0.224, 0.978, 192.0, 0.0, 0.0, 0.0, 0.0, 0.0, 0.0, 0.0, 0.0, 0.0, 1.6898436739663143E9, 0.0, 2023-07-20 11:01:13.966
46.0, -68.79866943343514, 0.0, 0.0, 0.0, 0.0, 0.0, 0.0, 0.0, 0.044, 0.224, 0.978, 192.0, 0.0, 0.0, 0.0, 0.0, 0.0, 0.0, 0.0, 0.0, 0.0, 1.6898436739663336E9, 0.0, 2023-07-20 11:01:13.966
47.0, -87.14945163124224, 0.0, 0.0, 0.0, 0.0, 0.0, 0.0, 0.0, 0.044, 0.224, 0.978, 192.0, 0.0, 0.0, 0.0, 0.0, 0.0, 0.0, 0.0, 0.0, 0.0, 1.6898436739663537E9, 0.0, 2023-07-20 11:01:13.966
48.0, -1.9446017676117144, 0.0, 0.0, 0.0, 0.0, 0.0, 0.0, 0.0, 0.044, 0.226, 0.978, 192.0, 1.0, 96.0, 7.0, 16.0, 30.0, 144.0, 0.0, 0.0, 0.0, 1.6898436739663737E9, 0.0, 2023-07-20 11:01:13.966
49.0, 49.24089303504146, 0.0, 0.0, 0.0, 0.0, 0.0, 0.0, 0.0, 0.044, 0.226, 0.978, 192.0, 0.0, 0.0, 0.0, 0.0, 0.0, 0.0, 0.0, 0.0, 0.0, 1.6898436739663928E9, 0.0, 2023-07-20 11:01:13.966
50.0, 120.5653095919263, 0.0, 0.0, 0.0, 0.0, 0.0, 0.0, 0.0, 0.044, 0.226, 0.978, 192.0, 0.0, 0.0, 0.0, 0.0, 0.0, 0.0, 0.0, 0.0, 0.0, 1.6898436739664104E9, 0.0, 2023-07-20 11:01:13.966
51.0, 107.44483559666105, 0.0, 0.0, 0.0, 0.0, 0.0, 0.0, 0.0, 0.044, 0.226, 0.978, 192.0, 0.0, 0.0, 0.0, 0.0, 0.0, 0.0, 0.0, 0.0, 0.0, 1.6898436739664285E9, 0.0, 2023-07-20 11:01:13.966
52.0, -89.07170165439865, 0.0, 0.0, 0.0, 0.0, 0.0, 0.0, 0.0, 0.044, 0.226, 0.978, 192.0, 0.0, 0.0, 0.0, 0.0, 0.0, 0.0, 0.0, 0.0, 0.0, 1.689843673966447E9, 0.0, 2023-07-20 11:01:13.966
53.0, -180.19976379868555, 0.0, 0.0, 0.0, 0.0, 0.0, 0.0, 0.0, 0.044, 0.226, 0.978, 192.0, 0.0, 0.0, 0.0, 0.0, 0.0, 0.0, 0.0, 0.0, 0.0, 1.6898436739664648E9, 0.0, 2023-07-20 11:01:13.966
54.0, -165.00057756907674, 0.0, 0.0, 0.0, 0.0, 0.0, 0.0, 0.0, 0.044, 0.226, 0.978, 192.0, 0.0, 0.0, 0.0, 0.0, 0.0, 0.0, 0.0, 0.0, 0.0, 1.6898436739664829E9, 0.0, 2023-07-20 11:01:13.966
55.0, -57.37692801677323, 0.0, 0.0, 0.0, 0.0, 0.0, 0.0, 0.0, 0.044, 0.226, 0.978, 192.0, 0.0, 0.0, 0.0, 0.0, 0.0, 0.0, 0.0, 0.0, 0.0, 1.6898436739665012E9, 0.0, 2023-07-20 11:01:13.966
56.0, 109.8364722533789, 0.0, 0.0, 0.0, 0.0, 0.0, 0.0, 0.0, 0.044, 0.226, 0.978, 192.0, 0.0, 0.0, 0.0, 0.0, 0.0, 0.0, 0.0, 0.0, 0.0, 1.6898436739665198E9, 0.0, 2023-07-20 11:01:13.966
57.0, 91.06100691092098, 0.0, 0.0, 0.0, 0.0, 0.0, 0.0, 0.0, 0.044, 0.226, 0.978, 192.0, 0.0, 0.0, 0.0, 0.0, 0.0, 0.0, 0.0, 0.0, 0.0, 1.6898436739665394E9, 0.0, 2023-07-20 11:01:13.966
58.0, 32.99117481603322, 0.0, 0.0, 0.0, 0.0, 0.0, 0.0, 0.0, 0.046, 0.228, 0.984, 192.0, 1.0, 112.0, 7.0, 32.0, 30.0, 192.0, 0.0, 0.0, 0.0, 1.6898436739665594E9, 0.0, 2023-07-20 11:01:13.966
59.0, 10.57237512736024, 0.0, 0.0, 0.0, 0.0, 0.0, 0.0, 0.0, 0.046, 0.228, 0.984, 192.0, 0.0, 0.0, 0.0, 0.0, 0.0, 0.0, 0.0, 0.0, 0.0, 1.6898436739665816E9, 0.0, 2023-07-20 11:01:13.966
60.0, -60.99791061853298, 0.0, 0.0, 0.0, 0.0, 0.0, 0.0, 0.0, 0.046, 0.228, 0.984, 192.0, 0.0, 0.0, 0.0, 0.0, 0.0, 0.0, 0.0, 0.0, 0.0, 1.689843673966604E9, 0.0, 2023-07-20 11:01:13.966
61.0, -68.9998351335329, 0.0, 0.0, 0.0, 0.0, 0.0, 0.0, 0.0, 0.046, 0.228, 0.984, 192.0, 0.0, 0.0, 0.0, 0.0, 0.0, 0.0, 0.0, 0.0, 0.0, 1.689843673966633E9, 0.0, 2023-07-20 11:01:13.966
62.0, -122.66637357072516, 0.0, 0.0, 0.0, 0.0, 0.0, 0.0, 0.0, 0.046, 0.228, 0.984, 192.0, 0.0, 0.0, 0.0, 0.0, 0.0, 0.0, 0.0, 0.0, 0.0, 1.6898436739666567E9, 0.0, 2023-07-20 11:01:13.966
63.0, -143.7440685920797, 0.0, 0.0, 0.0, 0.0, 0.0, 0.0, 0.0, 0.046, 0.228, 0.984, 192.0, 0.0, 0.0, 0.0, 0.0, 0.0, 0.0, 0.0, 0.0, 0.0, 1.689843673966678E9, 0.0, 2023-07-20 11:01:13.966
64.0, 13.858081562290378, 0.0, 0.0, 0.0, 0.0, 0.0, 0.0, 0.0, 0.046, 0.228, 0.984, 192.0, 0.0, 0.0, 0.0, 0.0, 0.0, 0.0, 0.0, 0.0, 0.0, 1.6898436739667106E9, 0.0, 2023-07-20 11:01:13.966
65.0, 119.40301888025033, 0.0, 0.0, 0.0, 0.0, 0.0, 0.0, 0.0, 0.046, 0.228, 0.984, 192.0, 0.0, 0.0, 0.0, 0.0, 0.0, 0.0, 0.0, 0.0, 0.0, 1.689843673966731E9, 0.0, 2023-07-20 11:01:13.966
66.0, 145.15222849276407, 0.0, 0.0, 0.0, 0.0, 0.0, 0.0, 0.0, 0.046, 0.228, 0.984, 192.0, 0.0, 0.0, 0.0, 0.0, 0.0, 0.0, 0.0, 0.0, 0.0, 1.6898436739668448E9, 0.0, 2023-07-20 11:01:13.966
67.0, 54.38179425976208, 0.0, 0.0, 0.0, 0.0, 0.0, 0.0, 0.0, 0.046, 0.228, 0.984, 192.0, 0.0, 0.0, 0.0, 0.0, 0.0, 0.0, 0.0, 0.0, 0.0, 1.6898436739668767E9, 0.0, 2023-07-20 11:01:13.966
68.0, -146.5380366489931, 0.0, 0.0, 0.0, 0.0, 0.0, 0.0, 0.0, 0.048, 0.228, 0.986, 192.0, 1.0, 128.0, 7.0, 32.0, 30.0, 208.0, 0.0, 0.0, 0.0, 1.6898436739669003E9, 0.0, 2023-07-20 11:01:13.966
69.0, -166.05110955847616, 0.0, 0.0, 0.0, 0.0, 0.0, 0.0, 0.0, 0.048, 0.228, 0.986, 192.0, 0.0, 0.0, 0.0, 0.0, 0.0, 0.0, 0.0, 0.0, 0.0, 1.6898436739669251E9, 0.0, 2023-07-20 11:01:13.966
70.0, -94.07849241238743, 0.0, 0.0, 0.0, 0.0, 0.0, 0.0, 0.0, 0.048, 0.228, 0.986, 192.0, 0.0, 0.0, 0.0, 0.0, 0.0, 0.0, 0.0, 0.0, 0.0, 1.6898436739669492E9, 0.0, 2023-07-20 11:01:13.966
71.0, -31.538311426438266, 0.0, 0.0, 0.0, 0.0, 0.0, 0.0, 0.0, 0.048, 0.228, 0.986, 192.0, 0.0, 0.0, 0.0, 0.0, 0.0, 0.0, 0.0, 0.0, 0.0, 1.6898436739669724E9, 0.0, 2023-07-20 11:01:13.966
72.0, 57.95807337261121, 0.0, 0.0, 0.0, 0.0, 0.0, 0.0, 0.0, 0.048, 0.228, 0.986, 192.0, 0.0, 0.0, 0.0, 0.0, 0.0, 0.0, 0.0, 0.0, 0.0, 1.6898436739669943E9, 0.0, 2023-07-20 11:01:13.966
73.0, 34.10876203879858, 0.0, 0.0, 0.0, 0.0, 0.0, 0.0, 0.0, 0.048, 0.228, 0.986, 192.0, 0.0, 0.0, 0.0, 0.0, 0.0, 0.0, 0.0, 0.0, 0.0, 1.6898436739670167E9, 0.0, 2023-07-20 11:01:13.967
74.0, 47.7880296454465, 0.0, 0.0, 0.0, 0.0, 0.0, 0.0, 0.0, 0.048, 0.228, 0.986, 192.0, 0.0, 0.0, 0.0, 0.0, 0.0, 0.0, 0.0, 0.0, 0.0, 1.6898436739670405E9, 0.0, 2023-07-20 11:01:13.967
75.0, 80.53333527247135, 0.0, 0.0, 0.0, 0.0, 0.0, 0.0, 0.0, 0.048, 0.228, 0.986, 192.0, 0.0, 0.0, 0.0, 0.0, 0.0, 0.0, 0.0, 0.0, 0.0, 1.6898436739670625E9, 0.0, 2023-07-20 11:01:13.967
76.0, -34.44403820562818, 0.0, 0.0, 0.0, 0.0, 0.0, 0.0, 0.0, 0.048, 0.228, 0.986, 192.0, 0.0, 0.0, 0.0, 0.0, 0.0, 0.0, 0.0, 0.0, 0.0, 1.6898436739670837E9, 0.0, 2023-07-20 11:01:13.967
77.0, -120.43119912519445, 0.0, 0.0, 0.0, 0.0, 0.0, 0.0, 0.0, 0.048, 0.228, 0.986, 192.0, 0.0, 0.0, 0.0, 0.0, 0.0, 0.0, 0.0, 0.0, 0.0, 1.6898436739671023E9, 0.0, 2023-07-20 11:01:13.967
78.0, -179.37274925383917, 0.0, 0.0, 0.0, 0.0, 0.0, 0.0, 0.0, 0.042, 0.226, 0.986, 192.0, 1.0, 80.0, 7.0, 16.0, 30.0, 208.0, 0.0, 0.0, 0.0, 1.689843673967124E9, 0.0, 2023-07-20 11:01:13.967
79.0, -129.8189317964234, 0.0, 0.0, 0.0, 0.0, 0.0, 0.0, 0.0, 0.042, 0.226, 0.986, 192.0, 0.0, 0.0, 0.0, 0.0, 0.0, 0.0, 0.0, 0.0, 0.0, 1.6898436739671476E9, 0.0, 2023-07-20 11:01:13.967
80.0, 83.39435856275065, 0.0, 0.0, 0.0, 0.0, 0.0, 0.0, 0.0, 0.042, 0.226, 0.986, 192.0, 0.0, 0.0, 0.0, 0.0, 0.0, 0.0, 0.0, 0.0, 0.0, 1.6898436739672081E9, 0.0, 2023-07-20 11:01:13.967
81.0, 146.02394652652103, 0.0, 0.0, 0.0, 0.0, 0.0, 0.0, 0.0, 0.042, 0.226, 0.986, 192.0, 0.0, 0.0, 0.0, 0.0, 0.0, 0.0, 0.0, 0.0, 0.0, 1.689843673967312E9, 0.0, 2023-07-20 11:01:13.967
82.0, 93.89967845674497, 0.0, 0.0, 0.0, 0.0, 0.0, 0.0, 0.0, 0.042, 0.226, 0.986, 192.0, 0.0, 0.0, 0.0, 0.0, 0.0, 0.0, 0.0, 0.0, 0.0, 1.6898436739673371E9, 0.0, 2023-07-20 11:01:13.967
83.0, -3.509223879483209, 0.0, 0.0, 0.0, 0.0, 0.0, 0.0, 0.0, 0.042, 0.226, 0.986, 192.0, 0.0, 0.0, 0.0, 0.0, 0.0, 0.0, 0.0, 0.0, 0.0, 1.6898436739673593E9, 0.0, 2023-07-20 11:01:13.967
84.0, -133.79754230946807, 0.0, 0.0, 0.0, 0.0, 0.0, 0.0, 0.0, 0.042, 0.226, 0.986, 192.0, 0.0, 0.0, 0.0, 0.0, 0.0, 0.0, 0.0, 0.0, 0.0, 1.6898436739673817E9, 0.0, 2023-07-20 11:01:13.967
85.0, -96.60423953583712, 0.0, 0.0, 0.0, 0.0, 0.0, 0.0, 0.0, 0.042, 0.226, 0.986, 192.0, 0.0, 0.0, 0.0, 0.0, 0.0, 0.0, 0.0, 0.0, 0.0, 1.6898436739674037E9, 0.0, 2023-07-20 11:01:13.967
86.0, -67.99400663304408, 0.0, 0.0, 0.0, 0.0, 0.0, 0.0, 0.0, 0.042, 0.226, 0.986, 192.0, 0.0, 0.0, 0.0, 0.0, 0.0, 0.0, 0.0, 0.0, 0.0, 1.689843673967426E9, 0.0, 2023-07-20 11:01:13.967
87.0, -82.74615797354674, 0.0, 0.0, 0.0, 0.0, 0.0, 0.0, 0.0, 0.042, 0.226, 0.986, 192.0, 0.0, 0.0, 0.0, 0.0, 0.0, 0.0, 0.0, 0.0, 0.0, 1.6898436739674487E9, 0.0, 2023-07-20 11:01:13.967
88.0, -0.31292442237429885, 0.0, 0.0, 0.0, 0.0, 0.0, 0.0, 0.0, 0.042, 0.222, 0.982, 192.0, 1.0, 80.0, 6.0, 240.0, 30.0, 176.0, 0.0, 0.0, 0.0, 1.6898436739674723E9, 0.0, 2023-07-20 11:01:13.967
89.0, 45.35168949981803, 0.0, 0.0, 0.0, 0.0, 0.0, 0.0, 0.0, 0.042, 0.222, 0.982, 192.0, 0.0, 0.0, 0.0, 0.0, 0.0, 0.0, 0.0, 0.0, 0.0, 1.6898436739674957E9, 0.0, 2023-07-20 11:01:13.967
90.0, 116.40788512323918, 0.0, 0.0, 0.0, 0.0, 0.0, 0.0, 0.0, 0.042, 0.222, 0.982, 192.0, 0.0, 0.0, 0.0, 0.0, 0.0, 0.0, 0.0, 0.0, 0.0, 1.6898436739675164E9, 0.0, 2023-07-20 11:01:13.967
91.0, 108.16009141923088, 0.0, 0.0, 0.0, 0.0, 0.0, 0.0, 0.0, 0.042, 0.222, 0.982, 192.0, 0.0, 0.0, 0.0, 0.0, 0.0, 0.0, 0.0, 0.0, 0.0, 1.6898436739675357E9, 0.0, 2023-07-20 11:01:13.967
92.0, -86.03186440847688, 0.0, 0.0, 0.0, 0.0, 0.0, 0.0, 0.0, 0.042, 0.222, 0.982, 192.0, 0.0, 0.0, 0.0, 0.0, 0.0, 0.0, 0.0, 0.0, 0.0, 1.68984367396756E9, 0.0, 2023-07-20 11:01:13.967
93.0, -179.28334227601795, 0.0, 0.0, 0.0, 0.0, 0.0, 0.0, 0.0, 0.042, 0.222, 0.982, 192.0, 0.0, 0.0, 0.0, 0.0, 0.0, 0.0, 0.0, 0.0, 0.0, 1.689843673967588E9, 0.0, 2023-07-20 11:01:13.967
94.0, -167.7274903926242, 0.0, 0.0, 0.0, 0.0, 0.0, 0.0, 0.0, 0.042, 0.222, 0.982, 192.0, 0.0, 0.0, 0.0, 0.0, 0.0, 0.0, 0.0, 0.0, 0.0, 1.6898436739676087E9, 0.0, 2023-07-20 11:01:13.967
95.0, -60.684986196158675, 0.0, 0.0, 0.0, 0.0, 0.0, 0.0, 0.0, 0.042, 0.222, 0.982, 192.0, 0.0, 0.0, 0.0, 0.0, 0.0, 0.0, 0.0, 0.0, 0.0, 1.6898436739676294E9, 0.0, 2023-07-20 11:01:13.967
96.0, 110.95405947614425, 0.0, 0.0, 0.0, 0.0, 0.0, 0.0, 0.0, 0.042, 0.222, 0.982, 192.0, 0.0, 0.0, 0.0, 0.0, 0.0, 0.0, 0.0, 0.0, 0.0, 1.689843673967651E9, 0.0, 2023-07-20 11:01:13.967
97.0, 94.83845172386786, 0.0, 0.0, 0.0, 0.0, 0.0, 0.0, 0.0, 0.042, 0.222, 0.982, 192.0, 0.0, 0.0, 0.0, 0.0, 0.0, 0.0, 0.0, 0.0, 0.0, 1.6898436739676714E9, 0.0, 2023-07-20 11:01:13.967
98.0, 34.84636960582371, 0.0, 0.0, 0.0, 0.0, 0.0, 0.0, 0.0, 0.046, 0.222, 0.984, 192.0, 1.0, 112.0, 6.0, 240.0, 30.0, 192.0, 0.0, 0.0, 0.0, 1.689843673967693E9, 0.0, 2023-07-20 11:01:13.967
99.0, 8.024276259455236, 0.0, 0.0, 0.0, 0.0, 0.0, 0.0, 0.0, 0.046, 0.222, 0.984, 192.0, 0.0, 0.0, 0.0, 0.0, 0.0, 0.0, 0.0, 0.0, 0.0, 1.6898436739677143E9, 0.0, 2023-07-20 11:01:13.967
100.0, -63.83658216435697, 0.0, 0.0, 0.0, 0.0, 0.0, 0.0, 0.0, 0.046, 0.222, 0.984, 192.0, 0.0, 0.0, 0.0, 0.0, 0.0, 0.0, 0.0, 0.0, 0.0, 1.6898436739677348E9, 0.0, 2023-07-20 11:01:13.967
101.0, -66.98817813255526, 0.0, 0.0, 0.0, 0.0, 0.0, 0.0, 0.0, 0.046, 0.222, 0.984, 192.0, 0.0, 0.0, 0.0, 0.0, 0.0, 0.0, 0.0, 0.0, 0.0, 1.6898436739677556E9, 0.0, 2023-07-20 11:01:13.967
102.0, -118.15132119075314, 0.0, 0.0, 0.0, 0.0, 0.0, 0.0, 0.0, 0.046, 0.222, 0.984, 192.0, 0.0, 0.0, 0.0, 0.0, 0.0, 0.0, 0.0, 0.0, 0.0, 1.6898436739677763E9, 0.0, 2023-07-20 11:01:13.967
103.0, -141.91122554674453, 0.0, 0.0, 0.0, 0.0, 0.0, 0.0, 0.0, 0.046, 0.222, 0.984, 192.0, 0.0, 0.0, 0.0, 0.0, 0.0, 0.0, 0.0, 0.0, 0.0, 1.6898436739677968E9, 0.0, 2023-07-20 11:01:13.967
104.0, 10.930003038645154, 0.0, 0.0, 0.0, 0.0, 0.0, 0.0, 0.0, 0.046, 0.222, 0.984, 192.0, 0.0, 0.0, 0.0, 0.0, 0.0, 0.0, 0.0, 0.0, 0.0, 1.6898436744451325E9, 0.0, 2023-07-20 11:01:14.445
105.0, 115.64792581175874, 0.0, 0.0, 0.0, 0.0, 0.0, 0.0, 0.0, 0.046, 0.222, 0.984, 192.0, 0.0, 0.0, 0.0, 0.0, 0.0, 0.0, 0.0, 0.0, 0.0, 1.689843674445198E9, 0.0, 2023-07-20 11:01:14.445
106.0, 145.8898360597892, 0.0, 0.0, 0.0, 0.0, 0.0, 0.0, 0.0, 0.046, 0.222, 0.984, 192.0, 0.0, 0.0, 0.0, 0.0, 0.0, 0.0, 0.0, 0.0, 0.0, 1.689843674445238E9, 0.0, 2023-07-20 11:01:14.445
107.0, 58.2262943060749, 0.0, 0.0, 0.0, 0.0, 0.0, 0.0, 0.0, 0.046, 0.222, 0.984, 192.0, 0.0, 0.0, 0.0, 0.0, 0.0, 0.0, 0.0, 0.0, 0.0, 1.6898436744452746E9, 0.0, 2023-07-20 11:01:14.445
108.0, -144.72754534811324, 0.0, 0.0, 0.0, 0.0, 0.0, 0.0, 0.0, 0.048, 0.22, 0.984, 192.0, 1.0, 128.0, 6.0, 224.0, 30.0, 192.0, 0.0, 0.0, 0.0, 1.6898436744453075E9, 0.0, 2023-07-20 11:01:14.445
109.0, -168.6662636597471, 0.0, 0.0, 0.0, 0.0, 0.0, 0.0, 0.0, 0.048, 0.22, 0.984, 192.0, 0.0, 0.0, 0.0, 0.0, 0.0, 0.0, 0.0, 0.0, 0.0, 1.689843674445341E9, 0.0, 2023-07-20 11:01:14.445
110.0, -98.48178607008292, 0.0, 0.0, 0.0, 0.0, 0.0, 0.0, 0.0, 0.048, 0.22, 0.984, 192.0, 0.0, 0.0, 0.0, 0.0, 0.0, 0.0, 0.0, 0.0, 0.0, 1.689843674445371E9, 0.0, 2023-07-20 11:01:14.445
111.0, -31.42655270416173, 0.0, 0.0, 0.0, 0.0, 0.0, 0.0, 0.0, 0.048, 0.22, 0.984, 192.0, 0.0, 0.0, 0.0, 0.0, 0.0, 0.0, 0.0, 0.0, 0.0, 1.6898436744453912E9, 0.0, 2023-07-20 11:01:14.445
112.0, 61.601407718826266, 0.0, 0.0, 0.0, 0.0, 0.0, 0.0, 0.0, 0.048, 0.22, 0.984, 192.0, 0.0, 0.0, 0.0, 0.0, 0.0, 0.0, 0.0, 0.0, 0.0, 1.6898436744454145E9, 0.0, 2023-07-20 11:01:14.445
113.0, 35.51692193948292, 0.0, 0.0, 0.0, 0.0, 0.0, 0.0, 0.0, 0.048, 0.22, 0.984, 192.0, 0.0, 0.0, 0.0, 0.0, 0.0, 0.0, 0.0, 0.0, 0.0, 1.6898436744454365E9, 0.0, 2023-07-20 11:01:14.445
114.0, 44.72584065506943, 0.0, 0.0, 0.0, 0.0, 0.0, 0.0, 0.0, 0.048, 0.22, 0.984, 192.0, 0.0, 0.0, 0.0, 0.0, 0.0, 0.0, 0.0, 0.0, 0.0, 1.689843674445457E9, 0.0, 2023-07-20 11:01:14.445
115.0, 77.47114628209428, 0.0, 0.0, 0.0, 0.0, 0.0, 0.0, 0.0, 0.048, 0.22, 0.984, 192.0, 0.0, 0.0, 0.0, 0.0, 0.0, 0.0, 0.0, 0.0, 0.0, 1.6898436744454784E9, 0.0, 2023-07-20 11:01:14.445
116.0, -33.39350621622875, 0.0, 0.0, 0.0, 0.0, 0.0, 0.0, 0.0, 0.048, 0.22, 0.984, 192.0, 0.0, 0.0, 0.0, 0.0, 0.0, 0.0, 0.0, 0.0, 0.0, 1.6898436744455E9, 0.0, 2023-07-20 11:01:14.445
117.0, -116.58669907888164, 0.0, 0.0, 0.0, 0.0, 0.0, 0.0, 0.0, 0.048, 0.22, 0.984, 192.0, 0.0, 0.0, 0.0, 0.0, 0.0, 0.0, 0.0, 0.0, 0.0, 1.6898436744455209E9, 0.0, 2023-07-20 11:01:14.445
118.0, -177.62931318632522, 0.0, 0.0, 0.0, 0.0, 0.0, 0.0, 0.0, 0.046, 0.224, 0.984, 192.0, 1.0, 112.0, 7.0, 0.0, 30.0, 192.0, 0.0, 0.0, 0.0, 1.6898436744455404E9, 0.0, 2023-07-20 11:01:14.445
119.0, -132.79171380897927, 0.0, 0.0, 0.0, 0.0, 0.0, 0.0, 0.0, 0.046, 0.224, 0.984, 192.0, 0.0, 0.0, 0.0, 0.0, 0.0, 0.0, 0.0, 0.0, 0.0, 1.68984367444556E9, 0.0, 2023-07-20 11:01:14.445
120.0, 79.4380997941613, 0.0, 0.0, 0.0, 0.0, 0.0, 0.0, 0.0, 0.046, 0.224, 0.984, 192.0, 0.0, 0.0, 0.0, 0.0, 0.0, 0.0, 0.0, 0.0, 0.0, 1.6898436744455805E9, 0.0, 2023-07-20 11:01:14.445
121.0, 146.11335350434226, 0.0, 0.0, 0.0, 0.0, 0.0, 0.0, 0.0, 0.046, 0.224, 0.984, 192.0, 0.0, 0.0, 0.0, 0.0, 0.0, 0.0, 0.0, 0.0, 0.0, 1.6898436744456003E9, 0.0, 2023-07-20 11:01:14.445
122.0, 97.56536454741533, 0.0, 0.0, 0.0, 0.0, 0.0, 0.0, 0.0, 0.046, 0.224, 0.984, 192.0, 0.0, 0.0, 0.0, 0.0, 0.0, 0.0, 0.0, 0.0, 0.0, 1.6898436744456196E9, 0.0, 2023-07-20 11:01:14.445
123.0, -1.2740494339525026, 0.0, 0.0, 0.0, 0.0, 0.0, 0.0, 0.0, 0.046, 0.224, 0.984, 192.0, 0.0, 0.0, 0.0, 0.0, 0.0, 0.0, 0.0, 0.0, 0.0, 1.68984367444564E9, 0.0, 2023-07-20 11:01:14.445
124.0, -136.05506849945408, 0.0, 0.0, 0.0, 0.0, 0.0, 0.0, 0.0, 0.046, 0.224, 0.984, 192.0, 0.0, 0.0, 0.0, 0.0, 0.0, 0.0, 0.0, 0.0, 0.0, 1.6898436744456604E9, 0.0, 2023-07-20 11:01:14.445
125.0, -99.33115235938459, 0.0, 0.0, 0.0, 0.0, 0.0, 0.0, 0.0, 0.046, 0.224, 0.984, 192.0, 0.0, 0.0, 0.0, 0.0, 0.0, 0.0, 0.0, 0.0, 0.0, 1.6898436744456823E9, 0.0, 2023-07-20 11:01:14.445
126.0, -67.3905095327508, 0.0, 0.0, 0.0, 0.0, 0.0, 0.0, 0.0, 0.046, 0.224, 0.984, 192.0, 0.0, 0.0, 0.0, 0.0, 0.0, 0.0, 0.0, 0.0, 0.0, 1.6898436744457035E9, 0.0, 2023-07-20 11:01:14.445
127.0, -79.97454166108867, 0.0, 0.0, 0.0, 0.0, 0.0, 0.0, 0.0, 0.046, 0.224, 0.984, 192.0, 0.0, 0.0, 0.0, 0.0, 0.0, 0.0, 0.0, 0.0, 0.0, 1.6898436744457233E9, 0.0, 2023-07-20 11:01:14.445
128.0, 1.2069942005865815, 0.0, 0.0, 0.0, 0.0, 0.0, 0.0, 0.0, 0.042, 0.218, 0.982, 192.0, 1.0, 80.0, 6.0, 208.0, 30.0, 176.0, 0.0, 0.0, 0.0, 1.6898436744457436E9, 0.0, 2023-07-20 11:01:14.445
129.0, 43.80941913240184, 0.0, 0.0, 0.0, 0.0, 0.0, 0.0, 0.0, 0.042, 0.218, 0.982, 192.0, 0.0, 0.0, 0.0, 0.0, 0.0, 0.0, 0.0, 0.0, 0.0, 1.6898436744457636E9, 0.0, 2023-07-20 11:01:14.445
130.0, 113.6362688107811, 0.0, 0.0, 0.0, 0.0, 0.0, 0.0, 0.0, 0.042, 0.218, 0.982, 192.0, 0.0, 0.0, 0.0, 0.0, 0.0, 0.0, 0.0, 0.0, 0.0, 1.6898436744457834E9, 0.0, 2023-07-20 11:01:14.445
131.0, 108.58477456388171, 0.0, 0.0, 0.0, 0.0, 0.0, 0.0, 0.0, 0.042, 0.218, 0.982, 192.0, 0.0, 0.0, 0.0, 0.0, 0.0, 0.0, 0.0, 0.0, 0.0, 1.6898436744458032E9, 0.0, 2023-07-20 11:01:14.445
132.0, -82.18736436216408, 0.0, 0.0, 0.0, 0.0, 0.0, 0.0, 0.0, 0.042, 0.218, 0.982, 192.0, 0.0, 0.0, 0.0, 0.0, 0.0, 0.0, 0.0, 0.0, 0.0, 1.689843674445824E9, 0.0, 2023-07-20 11:01:14.445
133.0, -177.71872016414645, 0.0, 0.0, 0.0, 0.0, 0.0, 0.0, 0.0, 0.042, 0.218, 0.982, 192.0, 0.0, 0.0, 0.0, 0.0, 0.0, 0.0, 0.0, 0.0, 0.0, 1.6898436744458432E9, 0.0, 2023-07-20 11:01:14.445
134.0, -170.5885136829035, 0.0, 0.0, 0.0, 0.0, 0.0, 0.0, 0.0, 0.042, 0.218, 0.982, 192.0, 0.0, 0.0, 0.0, 0.0, 0.0, 0.0, 0.0, 0.0, 0.0, 1.6898436744458628E9, 0.0, 2023-07-20 11:01:14.445
135.0, -63.56836123089329, 0.0, 0.0, 0.0, 0.0, 0.0, 0.0, 0.0, 0.042, 0.218, 0.982, 192.0, 0.0, 0.0, 0.0, 0.0, 0.0, 0.0, 0.0, 0.0, 0.0, 1.6898436744458828E9, 0.0, 2023-07-20 11:01:14.445
136.0, 111.55755657643755, 0.0, 0.0, 0.0, 0.0, 0.0, 0.0, 0.0, 0.042, 0.218, 0.982, 192.0, 0.0, 0.0, 0.0, 0.0, 0.0, 0.0, 0.0, 0.0, 0.0, 1.6898436744459023E9, 0.0, 2023-07-20 11:01:14.445
137.0, 98.61589653681476, 0.0, 0.0, 0.0, 0.0, 0.0, 0.0, 0.0, 0.042, 0.218, 0.982, 192.0, 0.0, 0.0, 0.0, 0.0, 0.0, 0.0, 0.0, 0.0, 0.0, 1.6898436744459236E9, 0.0, 2023-07-20 11:01:14.445
138.0, 36.67921265115889, 0.0, 0.0, 0.0, 0.0, 0.0, 0.0, 0.0, 0.04, 0.218, 0.986, 192.0, 1.0, 64.0, 6.0, 208.0, 30.0, 208.0, 0.0, 0.0, 0.0, 1.6898436744459536E9, 0.0, 2023-07-20 11:01:14.445
139.0, 5.565584369371458, 0.0, 0.0, 0.0, 0.0, 0.0, 0.0, 0.0, 0.04, 0.218, 0.986, 192.0, 0.0, 0.0, 0.0, 0.0, 0.0, 0.0, 0.0, 0.0, 0.0, 1.6898436744459748E9, 0.0, 2023-07-20 11:01:14.445
140.0, -67.27875081047426, 0.0, 0.0, 0.0, 0.0, 0.0, 0.0, 0.0, 0.04, 0.218, 0.986, 192.0, 0.0, 0.0, 0.0, 0.0, 0.0, 0.0, 0.0, 0.0, 0.0, 1.6898436744459944E9, 0.0, 2023-07-20 11:01:14.445
141.0, -67.18934383265304, 0.0, 0.0, 0.0, 0.0, 0.0, 0.0, 0.0, 0.04, 0.218, 0.986, 192.0, 0.0, 0.0, 0.0, 0.0, 0.0, 0.0, 0.0, 0.0, 0.0, 1.6898436744460225E9, 0.0, 2023-07-20 11:01:14.446
142.0, -114.61974556681461, 0.0, 0.0, 0.0, 0.0, 0.0, 0.0, 0.0, 0.04, 0.218, 0.986, 192.0, 0.0, 0.0, 0.0, 0.0, 0.0, 0.0, 0.0, 0.0, 0.0, 1.6898436744460433E9, 0.0, 2023-07-20 11:01:14.446
143.0, -140.10073424586466, 0.0, 0.0, 0.0, 0.0, 0.0, 0.0, 0.0, 0.04, 0.218, 0.986, 192.0, 0.0, 0.0, 0.0, 0.0, 0.0, 0.0, 0.0, 0.0, 0.0, 1.6898436744460635E9, 0.0, 2023-07-20 11:01:14.446
144.0, 7.890165792723393, 0.0, 0.0, 0.0, 0.0, 0.0, 0.0, 0.0, 0.04, 0.218, 0.986, 192.0, 0.0, 0.0, 0.0, 0.0, 0.0, 0.0, 0.0, 0.0, 0.0, 1.6898436744460816E9, 0.0, 2023-07-20 11:01:14.446
145.0, 112.58573682138167, 0.0, 0.0, 0.0, 0.0, 0.0, 0.0, 0.0, 0.04, 0.218, 0.986, 192.0, 0.0, 0.0, 0.0, 0.0, 0.0, 0.0, 0.0, 0.0, 0.0, 1.6898436744460995E9, 0.0, 2023-07-20 11:01:14.446
146.0, 146.42627792671658, 0.0, 0.0, 0.0, 0.0, 0.0, 0.0, 0.0, 0.04, 0.218, 0.986, 192.0, 0.0, 0.0, 0.0, 0.0, 0.0, 0.0, 0.0, 0.0, 0.0, 1.6898436744461205E9, 0.0, 2023-07-20 11:01:14.446
147.0, 61.55670422991565, 0.0, 0.0, 0.0, 0.0, 0.0, 0.0, 0.0, 0.04, 0.218, 0.986, 192.0, 0.0, 0.0, 0.0, 0.0, 0.0, 0.0, 0.0, 0.0, 0.0, 1.6898436744461412E9, 0.0, 2023-07-20 11:01:14.446
148.0, -142.98410928059928, 0.0, 0.0, 0.0, 0.0, 0.0, 0.0, 0.0, 0.046, 0.216, 0.98, 192.0, 1.0, 112.0, 6.0, 192.0, 30.0, 160.0, 0.0, 0.0, 0.0, 1.6898436744461608E9, 0.0, 2023-07-20 11:01:14.446
149.0, -170.8790863608225, 0.0, 0.0, 0.0, 0.0, 0.0, 0.0, 0.0, 0.046, 0.216, 0.98, 192.0, 0.0, 0.0, 0.0, 0.0, 0.0, 0.0, 0.0, 0.0, 0.0, 1.689843674446181E9, 0.0, 2023-07-20 11:01:14.446
150.0, -101.38751284927284, 0.0, 0.0, 0.0, 0.0, 0.0, 0.0, 0.0, 0.046, 0.216, 0.98, 192.0, 0.0, 0.0, 0.0, 0.0, 0.0, 0.0, 0.0, 0.0, 0.0, 1.6898436744462013E9, 0.0, 2023-07-20 11:01:14.446
151.0, -30.82305560386844, 0.0, 0.0, 0.0, 0.0, 0.0, 0.0, 0.0, 0.046, 0.216, 0.98, 192.0, 0.0, 0.0, 0.0, 0.0, 0.0, 0.0, 0.0, 0.0, 0.0, 1.6898436744462223E9, 0.0, 2023-07-20 11:01:14.446
152.0, 65.69177695414746, 0.0, 0.0, 0.0, 0.0, 0.0, 0.0, 0.0, 0.046, 0.216, 0.98, 192.0, 0.0, 0.0, 0.0, 0.0, 0.0, 0.0, 0.0, 0.0, 0.0, 1.6898436744462416E9, 0.0, 2023-07-20 11:01:14.446
153.0, 37.59563417382648, 0.0, 0.0, 0.0, 0.0, 0.0, 0.0, 0.0, 0.046, 0.216, 0.98, 192.0, 0.0, 0.0, 0.0, 0.0, 0.0, 0.0, 0.0, 0.0, 0.0, 1.6898436744462595E9, 0.0, 2023-07-20 11:01:14.446
154.0, 42.200093531619736, 0.0, 0.0, 0.0, 0.0, 0.0, 0.0, 0.0, 0.046, 0.216, 0.98, 192.0, 0.0, 0.0, 0.0, 0.0, 0.0, 0.0, 0.0, 0.0, 0.0, 1.6898436744462788E9, 0.0, 2023-07-20 11:01:14.446
155.0, 74.11838461379821, 0.0, 0.0, 0.0, 0.0, 0.0, 0.0, 0.0, 0.046, 0.216, 0.98, 192.0, 0.0, 0.0, 0.0, 0.0, 0.0, 0.0, 0.0, 0.0, 0.0, 1.689843674446298E9, 0.0, 2023-07-20 11:01:14.446
156.0, -33.66172714969244, 0.0, 0.0, 0.0, 0.0, 0.0, 0.0, 0.0, 0.046, 0.216, 0.98, 192.0, 0.0, 0.0, 0.0, 0.0, 0.0, 0.0, 0.0, 0.0, 0.0, 1.6898436744463167E9, 0.0, 2023-07-20 11:01:14.446
157.0, -112.9657164771219, 0.0, 0.0, 0.0, 0.0, 0.0, 0.0, 0.0, 0.046, 0.216, 0.98, 192.0, 0.0, 0.0, 0.0, 0.0, 0.0, 0.0, 0.0, 0.0, 0.0, 1.6898436744463365E9, 0.0, 2023-07-20 11:01:14.446
158.0, -176.0423393299984, 0.0, 0.0, 0.0, 0.0, 0.0, 0.0, 0.0, 0.046, 0.214, 0.978, 192.0, 1.0, 112.0, 6.0, 176.0, 30.0, 144.0, 0.0, 0.0, 0.0, 1.6898436744463546E9, 0.0, 2023-07-20 11:01:14.446
159.0, -136.1444754772753, 0.0, 0.0, 0.0, 0.0, 0.0, 0.0, 0.0, 0.046, 0.214, 0.978, 192.0, 0.0, 0.0, 0.0, 0.0, 0.0, 0.0, 0.0, 0.0, 0.0, 1.6898436744463725E9, 0.0, 2023-07-20 11:01:14.446
160.0, 76.06298638140993, 0.0, 0.0, 0.0, 0.0, 0.0, 0.0, 0.0, 0.046, 0.214, 0.978, 192.0, 0.0, 0.0, 0.0, 0.0, 0.0, 0.0, 0.0, 0.0, 0.0, 1.6898436744463925E9, 0.0, 2023-07-20 11:01:14.446
161.0, 146.4933331600825, 0.0, 0.0, 0.0, 0.0, 0.0, 0.0, 0.0, 0.046, 0.214, 0.978, 192.0, 0.0, 0.0, 0.0, 0.0, 0.0, 0.0, 0.0, 0.0, 0.0, 1.6898436744464128E9, 0.0, 2023-07-20 11:01:14.446
162.0, 100.9851814490773, 0.0, 0.0, 0.0, 0.0, 0.0, 0.0, 0.0, 0.046, 0.214, 0.978, 192.0, 0.0, 0.0, 0.0, 0.0, 0.0, 0.0, 0.0, 0.0, 0.0, 1.6898436744464324E9, 0.0, 2023-07-20 11:01:14.446
163.0, -0.022351744455307063, 0.0, 0.0, 0.0, 0.0, 0.0, 0.0, 0.0, 0.046, 0.214, 0.978, 192.0, 0.0, 0.0, 0.0, 0.0, 0.0, 0.0, 0.0, 0.0, 0.0, 1.689843674446453E9, 0.0, 2023-07-20 11:01:14.446
164.0, -139.13960923428647, 0.0, 0.0, 0.0, 0.0, 0.0, 0.0, 0.0, 0.046, 0.214, 0.978, 192.0, 0.0, 0.0, 0.0, 0.0, 0.0, 0.0, 0.0, 0.0, 0.0, 1.6898436744464736E9, 0.0, 2023-07-20 11:01:14.446
165.0, -102.66156228322534, 0.0, 0.0, 0.0, 0.0, 0.0, 0.0, 0.0, 0.046, 0.214, 0.978, 192.0, 0.0, 0.0, 0.0, 0.0, 0.0, 0.0, 0.0, 0.0, 0.0, 1.6898436744464943E9, 0.0, 2023-07-20 11:01:14.446
166.0, -66.89877115473404, 0.0, 0.0, 0.0, 0.0, 0.0, 0.0, 0.0, 0.046, 0.214, 0.978, 192.0, 0.0, 0.0, 0.0, 0.0, 0.0, 0.0, 0.0, 0.0, 0.0, 1.689843674446514E9, 0.0, 2023-07-20 11:01:14.446
167.0, -75.3030270699295, 0.0, 0.0, 0.0, 0.0, 0.0, 0.0, 0.0, 0.046, 0.214, 0.978, 192.0, 0.0, 0.0, 0.0, 0.0, 0.0, 0.0, 0.0, 0.0, 0.0, 1.6898436744465342E9, 0.0, 2023-07-20 11:01:14.446
168.0, 3.263354690474831, 0.0, 0.0, 0.0, 0.0, 0.0, 0.0, 0.0, 0.05, 0.216, 0.98, 192.0, 1.0, 144.0, 6.0, 192.0, 30.0, 160.0, 0.0, 0.0, 0.0, 1.689843674446555E9, 0.0, 2023-07-20 11:01:14.446
169.0, 40.94839584212254, 0.0, 0.0, 0.0, 0.0, 0.0, 0.0, 0.0, 0.05, 0.216, 0.98, 192.0, 0.0, 0.0, 0.0, 0.0, 0.0, 0.0, 0.0, 0.0, 0.0, 1.6898436744465752E9, 0.0, 2023-07-20 11:01:14.446
170.0, 110.21645190911913, 0.0, 0.0, 0.0, 0.0, 0.0, 0.0, 0.0, 0.05, 0.216, 0.98, 192.0, 0.0, 0.0, 0.0, 0.0, 0.0, 0.0, 0.0, 0.0, 0.0, 1.6898436744465954E9, 0.0, 2023-07-20 11:01:14.446
171.0, 109.03180945298786, 0.0, 0.0, 0.0, 0.0, 0.0, 0.0, 0.0, 0.05, 0.216, 0.98, 192.0, 0.0, 0.0, 0.0, 0.0, 0.0, 0.0, 0.0, 0.0, 0.0, 1.6898436744466157E9, 0.0, 2023-07-20 11:01:14.446
172.0, -77.8734776822898, 0.0, 0.0, 0.0, 0.0, 0.0, 0.0, 0.0, 0.05, 0.216, 0.98, 192.0, 0.0, 0.0, 0.0, 0.0, 0.0, 0.0, 0.0, 0.0, 0.0, 1.689843674446637E9, 0.0, 2023-07-20 11:01:14.446
173.0, -175.17062129624145, 0.0, 0.0, 0.0, 0.0, 0.0, 0.0, 0.0, 0.05, 0.216, 0.98, 192.0, 0.0, 0.0, 0.0, 0.0, 0.0, 0.0, 0.0, 0.0, 0.0, 1.6898436744466572E9, 0.0, 2023-07-20 11:01:14.446
174.0, -173.0919090618979, 0.0, 0.0, 0.0, 0.0, 0.0, 0.0, 0.0, 0.05, 0.216, 0.98, 192.0, 0.0, 0.0, 0.0, 0.0, 0.0, 0.0, 0.0, 0.0, 0.0, 1.6898436744466777E9, 0.0, 2023-07-20 11:01:14.446
175.0, -67.7481374440357, 0.0, 0.0, 0.0, 0.0, 0.0, 0.0, 0.0, 0.05, 0.216, 0.98, 192.0, 0.0, 0.0, 0.0, 0.0, 0.0, 0.0, 0.0, 0.0, 0.0, 1.689843674446698E9, 0.0, 2023-07-20 11:01:14.446
176.0, 111.60226006534816, 0.0, 0.0, 0.0, 0.0, 0.0, 0.0, 0.0, 0.05, 0.216, 0.98, 192.0, 0.0, 0.0, 0.0, 0.0, 0.0, 0.0, 0.0, 0.0, 0.0, 1.6898436744467185E9, 0.0, 2023-07-20 11:01:14.446
177.0, 102.68391402768064, 0.0, 0.0, 0.0, 0.0, 0.0, 0.0, 0.0, 0.05, 0.216, 0.98, 192.0, 0.0, 0.0, 0.0, 0.0, 0.0, 0.0, 0.0, 0.0, 0.0, 1.6898436744467387E9, 0.0, 2023-07-20 11:01:14.446
178.0, 38.55675918540468, 0.0, 0.0, 0.0, 0.0, 0.0, 0.0, 0.0, 0.044, 0.218, 0.98, 192.0, 1.0, 96.0, 6.0, 208.0, 30.0, 160.0, 0.0, 0.0, 0.0, 1.6898436744467587E9, 0.0, 2023-07-20 11:01:14.446
179.0, 2.525747123449698, 0.0, 0.0, 0.0, 0.0, 0.0, 0.0, 0.0, 0.044, 0.218, 0.98, 192.0, 0.0, 0.0, 0.0, 0.0, 0.0, 0.0, 0.0, 0.0, 0.0, 1.6898436744467783E9, 0.0, 2023-07-20 11:01:14.446
180.0, -70.83267817886808, 0.0, 0.0, 0.0, 0.0, 0.0, 0.0, 0.0, 0.044, 0.218, 0.98, 192.0, 0.0, 0.0, 0.0, 0.0, 0.0, 0.0, 0.0, 0.0, 0.0, 1.6898436744467971E9, 0.0, 2023-07-20 11:01:14.446
181.0, -66.87641941027873, 0.0, 0.0, 0.0, 0.0, 0.0, 0.0, 0.0, 0.044, 0.218, 0.98, 192.0, 0.0, 0.0, 0.0, 0.0, 0.0, 0.0, 0.0, 0.0, 0.0, 1.6898436744468157E9, 0.0, 2023-07-20 11:01:14.446
182.0, -110.4623210981275, 0.0, 0.0, 0.0, 0.0, 0.0, 0.0, 0.0, 0.044, 0.218, 0.98, 192.0, 0.0, 0.0, 0.0, 0.0, 0.0, 0.0, 0.0, 0.0, 0.0, 1.6898436744468355E9, 0.0, 2023-07-20 11:01:14.446
183.0, -138.40200166726135, 0.0, 0.0, 0.0, 0.0, 0.0, 0.0, 0.0, 0.044, 0.218, 0.98, 192.0, 0.0, 0.0, 0.0, 0.0, 0.0, 0.0, 0.0, 0.0, 0.0, 1.6898436744468546E9, 0.0, 2023-07-20 11:01:14.446
184.0, 5.006790757988782, 0.0, 0.0, 0.0, 0.0, 0.0, 0.0, 0.0, 0.044, 0.218, 0.98, 192.0, 0.0, 0.0, 0.0, 0.0, 0.0, 0.0, 0.0, 0.0, 0.0, 1.6898436744468732E9, 0.0, 2023-07-20 11:01:14.446
185.0, 108.71888503061355, 0.0, 0.0, 0.0, 0.0, 0.0, 0.0, 0.0, 0.044, 0.218, 0.98, 192.0, 0.0, 0.0, 0.0, 0.0, 0.0, 0.0, 0.0, 0.0, 0.0, 1.6898436744468923E9, 0.0, 2023-07-20 11:01:14.446
186.0, 146.8286093269121, 0.0, 0.0, 0.0, 0.0, 0.0, 0.0, 0.0, 0.044, 0.218, 0.98, 192.0, 0.0, 0.0, 0.0, 0.0, 0.0, 0.0, 0.0, 0.0, 0.0, 1.6898436744469116E9, 0.0, 2023-07-20 11:01:14.446
187.0, 65.71412869860276, 0.0, 0.0, 0.0, 0.0, 0.0, 0.0, 0.0, 0.044, 0.218, 0.98, 192.0, 0.0, 0.0, 0.0, 0.0, 0.0, 0.0, 0.0, 0.0, 0.0, 1.6898436744469347E9, 0.0, 2023-07-20 11:01:14.446
188.0, -140.8159900684345, 0.0, 0.0, 0.0, 0.0, 0.0, 0.0, 0.0, 0.044, 0.22, 0.98, 192.0, 1.0, 96.0, 6.0, 224.0, 30.0, 160.0, 0.0, 0.0, 0.0, 1.689843674446956E9, 0.0, 2023-07-20 11:01:14.446
189.0, -173.58364743991464, 0.0, 0.0, 0.0, 0.0, 0.0, 0.0, 0.0, 0.044, 0.22, 0.98, 192.0, 0.0, 0.0, 0.0, 0.0, 0.0, 0.0, 0.0, 0.0, 0.0, 1.6898436744469762E9, 0.0, 2023-07-20 11:01:14.446
190.0, -105.0308471954879, 0.0, 0.0, 0.0, 0.0, 0.0, 0.0, 0.0, 0.044, 0.22, 0.98, 192.0, 0.0, 0.0, 0.0, 0.0, 0.0, 0.0, 0.0, 0.0, 0.0, 1.6898436744469965E9, 0.0, 2023-07-20 11:01:14.446
191.0, -30.376020714762298, 0.0, 0.0, 0.0, 0.0, 0.0, 0.0, 0.0, 0.044, 0.22, 0.98, 192.0, 0.0, 0.0, 0.0, 0.0, 0.0, 0.0, 0.0, 0.0, 0.0, 1.6898436744470174E9, 0.0, 2023-07-20 11:01:14.447
192.0, 68.79866943343514, 0.0, 0.0, 0.0, 0.0, 0.0, 0.0, 0.0, 0.044, 0.22, 0.98, 192.0, 0.0, 0.0, 0.0, 0.0, 0.0, 0.0, 0.0, 0.0, 0.0, 1.689843674447038E9, 0.0, 2023-07-20 11:01:14.447
193.0, 39.54023594143819, 0.0, 0.0, 0.0, 0.0, 0.0, 0.0, 0.0, 0.044, 0.22, 0.98, 192.0, 0.0, 0.0, 0.0, 0.0, 0.0, 0.0, 0.0, 0.0, 0.0, 1.689843674447058E9, 0.0, 2023-07-20 11:01:14.447
194.0, 39.562587685893504, 0.0, 0.0, 0.0, 0.0, 0.0, 0.0, 0.0, 0.044, 0.22, 0.98, 192.0, 0.0, 0.0, 0.0, 0.0, 0.0, 0.0, 0.0, 0.0, 0.0, 1.689843674447078E9, 0.0, 2023-07-20 11:01:14.447
195.0, 70.65386422322563, 0.0, 0.0, 0.0, 0.0, 0.0, 0.0, 0.0, 0.044, 0.22, 0.98, 192.0, 0.0, 0.0, 0.0, 0.0, 0.0, 0.0, 0.0, 0.0, 0.0, 1.6898436744470985E9, 0.0, 2023-07-20 11:01:14.447
196.0, -33.2146922605863, 0.0, 0.0, 0.0, 0.0, 0.0, 0.0, 0.0, 0.044, 0.22, 0.98, 192.0, 0.0, 0.0, 0.0, 0.0, 0.0, 0.0, 0.0, 0.0, 0.0, 1.689843674447119E9, 0.0, 2023-07-20 11:01:14.447
197.0, -109.74706527555767, 0.0, 0.0, 0.0, 0.0, 0.0, 0.0, 0.0, 0.038, 0.22, 0.982, 192.0, 1.0, 48.0, 6.0, 224.0, 30.0, 176.0, 0.0, 0.0, 0.0, 1.6898436744471395E9, 0.0, 2023-07-20 11:01:14.447
198.0, -174.1424410512973, 0.0, 0.0, 0.0, 0.0, 0.0, 0.0, 0.0, 0.038, 0.22, 0.982, 192.0, 0.0, 0.0, 0.0, 0.0, 0.0, 0.0, 0.0, 0.0, 0.0, 1.6898436744471602E9, 0.0, 2023-07-20 11:01:14.447
199.0, -138.0443737559764, 0.0, 0.0, 0.0, 0.0, 0.0, 0.0, 0.0, 0.038, 0.22, 0.982, 192.0, 0.0, 0.0, 0.0, 0.0, 0.0, 0.0, 0.0, 0.0, 0.0, 1.6898436744471812E9, 0.0, 2023-07-20 11:01:14.447
200.0, 72.50905901301611, 0.0, 0.0, 0.0, 0.0, 0.0, 0.0, 0.0, 0.038, 0.22, 0.982, 192.0, 0.0, 0.0, 0.0, 0.0, 0.0, 0.0, 0.0, 0.0, 0.0, 1.689843674447202E9, 0.0, 2023-07-20 11:01:14.447
201.0, 146.94036804918863, 0.0, 0.0, 0.0, 0.0, 0.0, 0.0, 0.0, 0.038, 0.22, 0.982, 192.0, 0.0, 0.0, 0.0, 0.0, 0.0, 0.0, 0.0, 0.0, 0.0, 1.6898436744472225E9, 0.0, 2023-07-20 11:01:14.447
202.0, 104.89673672875604, 0.0, 0.0, 0.0, 0.0, 0.0, 0.0, 0.0, 0.038, 0.22, 0.982, 192.0, 0.0, 0.0, 0.0, 0.0, 0.0, 0.0, 0.0, 0.0, 0.0, 1.6898436744472415E9, 0.0, 2023-07-20 11:01:14.447
203.0, 2.3245814233519346, 0.0, 0.0, 0.0, 0.0, 0.0, 0.0, 0.0, 0.038, 0.22, 0.982, 192.0, 0.0, 0.0, 0.0, 0.0, 0.0, 0.0, 0.0, 0.0, 0.0, 1.6898436744472618E9, 0.0, 2023-07-20 11:01:14.447
204.0, -141.08421100189818, 0.0, 0.0, 0.0, 0.0, 0.0, 0.0, 0.0, 0.038, 0.22, 0.982, 192.0, 0.0, 0.0, 0.0, 0.0, 0.0, 0.0, 0.0, 0.0, 0.0, 1.6898436744472826E9, 0.0, 2023-07-20 11:01:14.447
205.0, -106.75193151854653, 0.0, 0.0, 0.0, 0.0, 0.0, 0.0, 0.0, 0.038, 0.22, 0.982, 192.0, 0.0, 0.0, 0.0, 0.0, 0.0, 0.0, 0.0, 0.0, 0.0, 1.689843674447302E9, 0.0, 2023-07-20 11:01:14.447
206.0, -67.03288162146588, 0.0, 0.0, 0.0, 0.0, 0.0, 0.0, 0.0, 0.038, 0.22, 0.982, 192.0, 0.0, 0.0, 0.0, 0.0, 0.0, 0.0, 0.0, 0.0, 0.0, 1.6898436744473195E9, 0.0, 2023-07-20 11:01:14.447
207.0, -72.53141075747142, 0.0, 0.0, 0.0, 0.0, 0.0, 0.0, 0.0, 0.044, 0.218, 0.982, 192.0, 1.0, 96.0, 6.0, 208.0, 30.0, 176.0, 0.0, 0.0, 0.0, 1.6898436744473383E9, 0.0, 2023-07-20 11:01:14.447
208.0, 5.498529136005537, 0.0, 0.0, 0.0, 0.0, 0.0, 0.0, 0.0, 0.044, 0.218, 0.982, 192.0, 0.0, 0.0, 0.0, 0.0, 0.0, 0.0, 0.0, 0.0, 0.0, 1.6898436744473574E9, 0.0, 2023-07-20 11:01:14.447
209.0, 38.86968360777898, 0.0, 0.0, 0.0, 0.0, 0.0, 0.0, 0.0, 0.044, 0.218, 0.982, 192.0, 0.0, 0.0, 0.0, 0.0, 0.0, 0.0, 0.0, 0.0, 0.0, 1.6898436744473767E9, 0.0, 2023-07-20 11:01:14.447
210.0, 106.48371058508285, 0.0, 0.0, 0.0, 0.0, 0.0, 0.0, 0.0, 0.044, 0.218, 0.982, 192.0, 0.0, 0.0, 0.0, 0.0, 0.0, 0.0, 0.0, 0.0, 0.0, 1.6898436744473968E9, 0.0, 2023-07-20 11:01:14.447
211.0, 109.47884434209399, 0.0, 0.0, 0.0, 0.0, 0.0, 0.0, 0.0, 0.044, 0.218, 0.982, 192.0, 0.0, 0.0, 0.0, 0.0, 0.0, 0.0, 0.0, 0.0, 0.0, 1.6898436744474175E9, 0.0, 2023-07-20 11:01:14.447
212.0, -74.40895729171721, 0.0, 0.0, 0.0, 0.0, 0.0, 0.0, 0.0, 0.044, 0.218, 0.982, 192.0, 0.0, 0.0, 0.0, 0.0, 0.0, 0.0, 0.0, 0.0, 0.0, 1.689843674447438E9, 0.0, 2023-07-20 11:01:14.447
213.0, -173.27072301754035, 0.0, 0.0, 0.0, 0.0, 0.0, 0.0, 0.0, 0.044, 0.218, 0.982, 192.0, 0.0, 0.0, 0.0, 0.0, 0.0, 0.0, 0.0, 0.0, 0.0, 1.6898436744474556E9, 0.0, 2023-07-20 11:01:14.447
214.0, -174.991807340599, 0.0, 0.0, 0.0, 0.0, 0.0, 0.0, 0.0, 0.044, 0.218, 0.982, 192.0, 0.0, 0.0, 0.0, 0.0, 0.0, 0.0, 0.0, 0.0, 0.0, 1.689843674447474E9, 0.0, 2023-07-20 11:01:14.447
215.0, -71.01149213451053, 0.0, 0.0, 0.0, 0.0, 0.0, 0.0, 0.0, 0.044, 0.218, 0.982, 192.0, 0.0, 0.0, 0.0, 0.0, 0.0, 0.0, 0.0, 0.0, 0.0, 1.6898436744474928E9, 0.0, 2023-07-20 11:01:14.447
216.0, 112.026943209999, 0.0, 0.0, 0.0, 0.0, 0.0, 0.0, 0.0, 0.044, 0.218, 0.982, 192.0, 0.0, 0.0, 0.0, 0.0, 0.0, 0.0, 0.0, 0.0, 0.0, 1.6898436744475107E9, 0.0, 2023-07-20 11:01:14.447
217.0, 106.03667569597671, 0.0, 0.0, 0.0, 0.0, 0.0, 0.0, 0.0, 0.044, 0.218, 0.986, 192.0, 1.0, 96.0, 6.0, 208.0, 30.0, 208.0, 0.0, 0.0, 0.0, 1.6898436744475296E9, 0.0, 2023-07-20 11:01:14.447
218.0, 40.92604409766723, 0.0, 0.0, 0.0, 0.0, 0.0, 0.0, 0.0, 0.044, 0.218, 0.986, 192.0, 0.0, 0.0, 0.0, 0.0, 0.0, 0.0, 0.0, 0.0, 0.0, 1.6898436744475484E9, 0.0, 2023-07-20 11:01:14.447
219.0, 0.8270145448463613, 0.0, 0.0, 0.0, 0.0, 0.0, 0.0, 0.0, 0.044, 0.218, 0.986, 192.0, 0.0, 0.0, 0.0, 0.0, 0.0, 0.0, 0.0, 0.0, 0.0, 1.689843674447568E9, 0.0, 2023-07-20 11:01:14.447
220.0, -74.00662589152168, 0.0, 0.0, 0.0, 0.0, 0.0, 0.0, 0.0, 0.044, 0.218, 0.986, 192.0, 0.0, 0.0, 0.0, 0.0, 0.0, 0.0, 0.0, 0.0, 0.0, 1.6898436744475875E9, 0.0, 2023-07-20 11:01:14.447
221.0, -66.38468103226198, 0.0, 0.0, 0.0, 0.0, 0.0, 0.0, 0.0, 0.044, 0.218, 0.986, 192.0, 0.0, 0.0, 0.0, 0.0, 0.0, 0.0, 0.0, 0.0, 0.0, 1.6898436744476075E9, 0.0, 2023-07-20 11:01:14.447
222.0, -107.15426291874206, 0.0, 0.0, 0.0, 0.0, 0.0, 0.0, 0.0, 0.044, 0.218, 0.986, 192.0, 0.0, 0.0, 0.0, 0.0, 0.0, 0.0, 0.0, 0.0, 0.0, 1.6898436744476275E9, 0.0, 2023-07-20 11:01:14.447
223.0, -136.03271675499877, 0.0, 0.0, 0.0, 0.0, 0.0, 0.0, 0.0, 0.044, 0.218, 0.986, 192.0, 0.0, 0.0, 0.0, 0.0, 0.0, 0.0, 0.0, 0.0, 0.0, 1.6898436744476476E9, 0.0, 2023-07-20 11:01:14.447
224.0, 2.883375034734611, 0.0, 0.0, 0.0, 0.0, 0.0, 0.0, 0.0, 0.044, 0.218, 0.986, 192.0, 0.0, 0.0, 0.0, 0.0, 0.0, 0.0, 0.0, 0.0, 0.0, 1.6898436749256651E9, 0.0, 2023-07-20 11:01:14.925
225.0, 104.56146056192644, 0.0, 0.0, 0.0, 0.0, 0.0, 0.0, 0.0, 0.044, 0.218, 0.986, 192.0, 0.0, 0.0, 0.0, 0.0, 0.0, 0.0, 0.0, 0.0, 0.0, 1.6898436749257824E9, 0.0, 2023-07-20 11:01:14.925
226.0, 147.20858898265232, 0.0, 0.0, 0.0, 0.0, 0.0, 0.0, 0.0, 0.044, 0.218, 0.986, 192.0, 0.0, 0.0, 0.0, 0.0, 0.0, 0.0, 0.0, 0.0, 0.0, 1.6898436749258285E9, 0.0, 2023-07-20 11:01:14.925
227.0, 69.80449793392395, 0.0, 0.0, 0.0, 0.0, 0.0, 0.0, 0.0, 0.046, 0.224, 0.988, 192.0, 1.0, 112.0, 7.0, 0.0, 30.0, 224.0, 0.0, 0.0, 0.0, 1.6898436749258869E9, 0.0, 2023-07-20 11:01:14.925
228.0, -138.9384435341887, 0.0, 0.0, 0.0, 0.0, 0.0, 0.0, 0.0, 0.046, 0.224, 0.988, 192.0, 0.0, 0.0, 0.0, 0.0, 0.0, 0.0, 0.0, 0.0, 0.0, 1.6898436749259124E9, 0.0, 2023-07-20 11:01:14.925
229.0, -175.90822886326657, 0.0, 0.0, 0.0, 0.0, 0.0, 0.0, 0.0, 0.046, 0.224, 0.988, 192.0, 0.0, 0.0, 0.0, 0.0, 0.0, 0.0, 0.0, 0.0, 0.0, 1.6898436749259355E9, 0.0, 2023-07-20 11:01:14.925
230.0, -108.98710596407724, 0.0, 0.0, 0.0, 0.0, 0.0, 0.0, 0.0, 0.046, 0.224, 0.988, 192.0, 0.0, 0.0, 0.0, 0.0, 0.0, 0.0, 0.0, 0.0, 0.0, 1.6898436749259572E9, 0.0, 2023-07-20 11:01:14.925
231.0, -30.42072420367291, 0.0, 0.0, 0.0, 0.0, 0.0, 0.0, 0.0, 0.046, 0.224, 0.988, 192.0, 0.0, 0.0, 0.0, 0.0, 0.0, 0.0, 0.0, 0.0, 0.0, 1.6898436749259787E9, 0.0, 2023-07-20 11:01:14.925
232.0, 72.62081773529265, 0.0, 0.0, 0.0, 0.0, 0.0, 0.0, 0.0, 0.046, 0.224, 0.988, 192.0, 0.0, 0.0, 0.0, 0.0, 0.0, 0.0, 0.0, 0.0, 0.0, 1.6898436749259963E9, 0.0, 2023-07-20 11:01:14.925
233.0, 41.68600340914767, 0.0, 0.0, 0.0, 0.0, 0.0, 0.0, 0.0, 0.046, 0.224, 0.988, 192.0, 0.0, 0.0, 0.0, 0.0, 0.0, 0.0, 0.0, 0.0, 0.0, 1.6898436749260142E9, 0.0, 2023-07-20 11:01:14.926
234.0, 37.41682021818402, 0.0, 0.0, 0.0, 0.0, 0.0, 0.0, 0.0, 0.046, 0.224, 0.988, 192.0, 0.0, 0.0, 0.0, 0.0, 0.0, 0.0, 0.0, 0.0, 0.0, 1.6898436749260345E9, 0.0, 2023-07-20 11:01:14.926
235.0, 66.60819847681505, 0.0, 0.0, 0.0, 0.0, 0.0, 0.0, 0.0, 0.046, 0.224, 0.988, 192.0, 0.0, 0.0, 0.0, 0.0, 0.0, 0.0, 0.0, 0.0, 0.0, 1.6898436749260535E9, 0.0, 2023-07-20 11:01:14.926
236.0, -32.94647132712261, 0.0, 0.0, 0.0, 0.0, 0.0, 0.0, 0.0, 0.046, 0.224, 0.988, 192.0, 0.0, 0.0, 0.0, 0.0, 0.0, 0.0, 0.0, 0.0, 0.0, 1.6898436749260736E9, 0.0, 2023-07-20 11:01:14.926
237.0, -105.54493731795995, 0.0, 0.0, 0.0, 0.0, 0.0, 0.0, 0.0, 0.046, 0.222, 0.982, 192.0, 1.0, 112.0, 6.0, 240.0, 30.0, 176.0, 0.0, 0.0, 0.0, 1.689843674926093E9, 0.0, 2023-07-20 11:01:14.926
238.0, -171.48258346111578, 0.0, 0.0, 0.0, 0.0, 0.0, 0.0, 0.0, 0.046, 0.222, 0.982, 192.0, 0.0, 0.0, 0.0, 0.0, 0.0, 0.0, 0.0, 0.0, 0.0, 1.6898436749261124E9, 0.0, 2023-07-20 11:01:14.926
239.0, -139.85486505685628, 0.0, 0.0, 0.0, 0.0, 0.0, 0.0, 0.0, 0.046, 0.222, 0.982, 192.0, 0.0, 0.0, 0.0, 0.0, 0.0, 0.0, 0.0, 0.0, 0.0, 1.6898436749261322E9, 0.0, 2023-07-20 11:01:14.926
240.0, 68.97748338907759, 0.0, 0.0, 0.0, 0.0, 0.0, 0.0, 0.0, 0.046, 0.222, 0.982, 192.0, 0.0, 0.0, 0.0, 0.0, 0.0, 0.0, 0.0, 0.0, 0.0, 1.6898436749261515E9, 0.0, 2023-07-20 11:01:14.926
241.0, 147.1415337492864, 0.0, 0.0, 0.0, 0.0, 0.0, 0.0, 0.0, 0.046, 0.222, 0.982, 192.0, 0.0, 0.0, 0.0, 0.0, 0.0, 0.0, 0.0, 0.0, 0.0, 1.6898436749261713E9, 0.0, 2023-07-20 11:01:14.926
242.0, 108.42831235269456, 0.0, 0.0, 0.0, 0.0, 0.0, 0.0, 0.0, 0.046, 0.222, 0.982, 192.0, 0.0, 0.0, 0.0, 0.0, 0.0, 0.0, 0.0, 0.0, 0.0, 1.6898436749261909E9, 0.0, 2023-07-20 11:01:14.926
243.0, 4.425645402150798, 0.0, 0.0, 0.0, 0.0, 0.0, 0.0, 0.0, 0.046, 0.222, 0.982, 192.0, 0.0, 0.0, 0.0, 0.0, 0.0, 0.0, 0.0, 0.0, 0.0, 1.6898436749262104E9, 0.0, 2023-07-20 11:01:14.926
244.0, -143.09586800287582, 0.0, 0.0, 0.0, 0.0, 0.0, 0.0, 0.0, 0.046, 0.222, 0.982, 192.0, 0.0, 0.0, 0.0, 0.0, 0.0, 0.0, 0.0, 0.0, 0.0, 1.6898436749262297E9, 0.0, 2023-07-20 11:01:14.926
245.0, -110.59643156485934, 0.0, 0.0, 0.0, 0.0, 0.0, 0.0, 0.0, 0.046, 0.222, 0.982, 192.0, 0.0, 0.0, 0.0, 0.0, 0.0, 0.0, 0.0, 0.0, 0.0, 1.6898436749262488E9, 0.0, 2023-07-20 11:01:14.926
246.0, -66.96582638809996, 0.0, 0.0, 0.0, 0.0, 0.0, 0.0, 0.0, 0.046, 0.222, 0.982, 192.0, 0.0, 0.0, 0.0, 0.0, 0.0, 0.0, 0.0, 0.0, 0.0, 1.689843674926268E9, 0.0, 2023-07-20 11:01:14.926
247.0, -68.61985547779268, 0.0, 0.0, 0.0, 0.0, 0.0, 0.0, 0.0, 0.046, 0.222, 0.982, 192.0, 1.0, 112.0, 6.0, 240.0, 30.0, 176.0, 0.0, 0.0, 0.0, 1.6898436749262953E9, 0.0, 2023-07-20 11:01:14.926
248.0, 7.376075670251331, 0.0, 0.0, 0.0, 0.0, 0.0, 0.0, 0.0, 0.046, 0.222, 0.982, 192.0, 0.0, 0.0, 0.0, 0.0, 0.0, 0.0, 0.0, 0.0, 0.0, 1.6898436749263153E9, 0.0, 2023-07-20 11:01:14.926
249.0, 36.790971373435426, 0.0, 0.0, 0.0, 0.0, 0.0, 0.0, 0.0, 0.046, 0.222, 0.982, 192.0, 0.0, 0.0, 0.0, 0.0, 0.0, 0.0, 0.0, 0.0, 0.0, 1.6898436749263349E9, 0.0, 2023-07-20 11:01:14.926
250.0, 102.77332100550187, 0.0, 0.0, 0.0, 0.0, 0.0, 0.0, 0.0, 0.046, 0.222, 0.982, 192.0, 0.0, 0.0, 0.0, 0.0, 0.0, 0.0, 0.0, 0.0, 0.0, 1.689843674926354E9, 0.0, 2023-07-20 11:01:14.926
251.0, 109.09886468635378, 0.0, 0.0, 0.0, 0.0, 0.0, 0.0, 0.0, 0.046, 0.222, 0.982, 192.0, 0.0, 0.0, 0.0, 0.0, 0.0, 0.0, 0.0, 0.0, 0.0, 1.6898436749263732E9, 0.0, 2023-07-20 11:01:14.926
252.0, -71.05619562342115, 0.0, 0.0, 0.0, 0.0, 0.0, 0.0, 0.0, 0.046, 0.222, 0.982, 192.0, 0.0, 0.0, 0.0, 0.0, 0.0, 0.0, 0.0, 0.0, 0.0, 1.6898436749263923E9, 0.0, 2023-07-20 11:01:14.926
253.0, -170.78967938300127, 0.0, 0.0, 0.0, 0.0, 0.0, 0.0, 0.0, 0.046, 0.222, 0.982, 192.0, 0.0, 0.0, 0.0, 0.0, 0.0, 0.0, 0.0, 0.0, 0.0, 1.689843674926412E9, 0.0, 2023-07-20 11:01:14.926
254.0, -177.04816783048724, 0.0, 0.0, 0.0, 0.0, 0.0, 0.0, 0.0, 0.046, 0.222, 0.982, 192.0, 0.0, 0.0, 0.0, 0.0, 0.0, 0.0, 0.0, 0.0, 0.0, 1.6898436749264317E9, 0.0, 2023-07-20 11:01:14.926
255.0, -75.07950962537642, 0.0, 0.0, 0.0, 0.0, 0.0, 0.0, 0.0, 0.046, 0.222, 0.982, 192.0, 0.0, 0.0, 0.0, 0.0, 0.0, 0.0, 0.0, 0.0, 0.0, 1.6898436749264512E9, 0.0, 2023-07-20 11:01:14.926
0.0, 111.84812925435654, 0.0, 0.0, 0.0, 0.0, 0.0, 0.0, 0.0, 0.046, 0.222, 0.982, 192.0, 0.0, 0.0, 0.0, 0.0, 0.0, 0.0, 0.0, 0.0, 0.0, 1.6898436749264705E9, 0.0, 2023-07-20 11:01:14.926
1.0, 109.25532689754093, 0.0, 0.0, 0.0, 0.0, 0.0, 0.0, 0.0, 0.048, 0.226, 0.98, 192.0, 1.0, 128.0, 7.0, 16.0, 30.0, 160.0, 0.0, 0.0, 0.0, 1.6898436749264896E9, 0.0, 2023-07-20 11:01:14.926
2.0, 42.75888714300241, 0.0, 0.0, 0.0, 0.0, 0.0, 0.0, 0.0, 0.048, 0.226, 0.98, 192.0, 0.0, 0.0, 0.0, 0.0, 0.0, 0.0, 0.0, 0.0, 0.0, 1.689843674926509E9, 0.0, 2023-07-20 11:01:14.926
3.0, -1.6987325786033367, 0.0, 0.0, 0.0, 0.0, 0.0, 0.0, 0.0, 0.048, 0.226, 0.98, 192.0, 0.0, 0.0, 0.0, 0.0, 0.0, 0.0, 0.0, 0.0, 0.0, 1.6898436749265277E9, 0.0, 2023-07-20 11:01:14.926
4.0, -77.98523640456634, 0.0, 0.0, 0.0, 0.0, 0.0, 0.0, 0.0, 0.048, 0.226, 0.98, 192.0, 0.0, 0.0, 0.0, 0.0, 0.0, 0.0, 0.0, 0.0, 0.0, 1.6898436749265475E9, 0.0, 2023-07-20 11:01:14.926
5.0, -66.71995719909158, 0.0, 0.0, 0.0, 0.0, 0.0, 0.0, 0.0, 0.048, 0.226, 0.98, 192.0, 0.0, 0.0, 0.0, 0.0, 0.0, 0.0, 0.0, 0.0, 0.0, 1.6898436749265673E9, 0.0, 2023-07-20 11:01:14.926
6.0, -103.55563206143762, 0.0, 0.0, 0.0, 0.0, 0.0, 0.0, 0.0, 0.048, 0.226, 0.98, 192.0, 0.0, 0.0, 0.0, 0.0, 0.0, 0.0, 0.0, 0.0, 0.0, 1.6898436749265864E9, 0.0, 2023-07-20 11:01:14.926
7.0, -134.04341149847644, 0.0, 0.0, 0.0, 0.0, 0.0, 0.0, 0.0, 0.048, 0.226, 0.98, 192.0, 0.0, 0.0, 0.0, 0.0, 0.0, 0.0, 0.0, 0.0, 0.0, 1.6898436749266057E9, 0.0, 2023-07-20 11:01:14.926
8.0, 1.5422703674161873, 0.0, 0.0, 0.0, 0.0, 0.0, 0.0, 0.0, 0.048, 0.226, 0.98, 192.0, 0.0, 0.0, 0.0, 0.0, 0.0, 0.0, 0.0, 0.0, 0.0, 1.6898436749266267E9, 0.0, 2023-07-20 11:01:14.926
9.0, 101.67808552719183, 0.0, 0.0, 0.0, 0.0, 0.0, 0.0, 0.0, 0.048, 0.226, 0.98, 192.0, 0.0, 0.0, 0.0, 0.0, 0.0, 0.0, 0.0, 0.0, 0.0, 1.6898436749266465E9, 0.0, 2023-07-20 11:01:14.926
10.0, 147.05212677146517, 0.0, 0.0, 0.0, 0.0, 0.0, 0.0, 0.0, 0.048, 0.226, 0.98, 192.0, 0.0, 0.0, 0.0, 0.0, 0.0, 0.0, 0.0, 0.0, 0.0, 1.6898436749266655E9, 0.0, 2023-07-20 11:01:14.926
11.0, 72.88903866875633, 0.0, 0.0, 0.0, 0.0, 0.0, 0.0, 0.0, 0.044, 0.23, 0.98, 192.0, 1.0, 96.0, 7.0, 48.0, 30.0, 160.0, 0.0, 0.0, 0.0, 1.689843674926685E9, 0.0, 2023-07-20 11:01:14.926
12.0, -136.83737955538984, 0.0, 0.0, 0.0, 0.0, 0.0, 0.0, 0.0, 0.044, 0.23, 0.98, 192.0, 0.0, 0.0, 0.0, 0.0, 0.0, 0.0, 0.0, 0.0, 0.0, 1.6898436749267051E9, 0.0, 2023-07-20 11:01:14.926
13.0, -178.27751377552914, 0.0, 0.0, 0.0, 0.0, 0.0, 0.0, 0.0, 0.044, 0.23, 0.98, 192.0, 0.0, 0.0, 0.0, 0.0, 0.0, 0.0, 0.0, 0.0, 0.0, 1.689843674926725E9, 0.0, 2023-07-20 11:01:14.926
14.0, -112.3622193768286, 0.0, 0.0, 0.0, 0.0, 0.0, 0.0, 0.0, 0.044, 0.23, 0.98, 192.0, 0.0, 0.0, 0.0, 0.0, 0.0, 0.0, 0.0, 0.0, 0.0, 1.689843674926744E9, 0.0, 2023-07-20 11:01:14.926
15.0, -29.928985825656156, 0.0, 0.0, 0.0, 0.0, 0.0, 0.0, 0.0, 0.044, 0.23, 0.98, 192.0, 0.0, 0.0, 0.0, 0.0, 0.0, 0.0, 0.0, 0.0, 0.0, 1.6898436749267633E9, 0.0, 2023-07-20 11:01:14.926
16.0, 76.28650382596301, 0.0, 0.0, 0.0, 0.0, 0.0, 0.0, 0.0, 0.044, 0.23, 0.98, 192.0, 0.0, 0.0, 0.0, 0.0, 0.0, 0.0, 0.0, 0.0, 0.0, 1.6898436749267824E9, 0.0, 2023-07-20 11:01:14.926
17.0, 43.20592203210855, 0.0, 0.0, 0.0, 0.0, 0.0, 0.0, 0.0, 0.044, 0.23, 0.98, 192.0, 0.0, 0.0, 0.0, 0.0, 0.0, 0.0, 0.0, 0.0, 0.0, 1.6898436749268017E9, 0.0, 2023-07-20 11:01:14.926
18.0, 35.7627911284913, 0.0, 0.0, 0.0, 0.0, 0.0, 0.0, 0.0, 0.044, 0.23, 0.98, 192.0, 0.0, 0.0, 0.0, 0.0, 0.0, 0.0, 0.0, 0.0, 0.0, 1.6898436749268208E9, 0.0, 2023-07-20 11:01:14.926
19.0, 62.339015285851396, 0.0, 0.0, 0.0, 0.0, 0.0, 0.0, 0.0, 0.044, 0.23, 0.98, 192.0, 0.0, 0.0, 0.0, 0.0, 0.0, 0.0, 0.0, 0.0, 0.0, 1.68984367492684E9, 0.0, 2023-07-20 11:01:14.926
20.0, -33.79583761642428, 0.0, 0.0, 0.0, 0.0, 0.0, 0.0, 0.0, 0.044, 0.23, 0.98, 192.0, 0.0, 0.0, 0.0, 0.0, 0.0, 0.0, 0.0, 0.0, 0.0, 1.6898436749268591E9, 0.0, 2023-07-20 11:01:14.926
21.0, -102.14747216075328, 0.0, 0.0, 0.0, 0.0, 0.0, 0.0, 0.0, 0.048, 0.228, 0.98, 192.0, 1.0, 128.0, 7.0, 32.0, 30.0, 160.0, 0.0, 0.0, 0.0, 1.6898436749268787E9, 0.0, 2023-07-20 11:01:14.926
22.0, -169.53798169350407, 0.0, 0.0, 0.0, 0.0, 0.0, 0.0, 0.0, 0.048, 0.228, 0.98, 192.0, 0.0, 0.0, 0.0, 0.0, 0.0, 0.0, 0.0, 0.0, 0.0, 1.689843674926898E9, 0.0, 2023-07-20 11:01:14.926
23.0, -142.04533601347637, 0.0, 0.0, 0.0, 0.0, 0.0, 0.0, 0.0, 0.048, 0.228, 0.98, 192.0, 0.0, 0.0, 0.0, 0.0, 0.0, 0.0, 0.0, 0.0, 0.0, 1.6898436749269173E9, 0.0, 2023-07-20 11:01:14.926
24.0, 64.93181764266701, 0.0, 0.0, 0.0, 0.0, 0.0, 0.0, 0.0, 0.048, 0.228, 0.98, 192.0, 0.0, 0.0, 0.0, 0.0, 0.0, 0.0, 0.0, 0.0, 0.0, 1.6898436749269366E9, 0.0, 2023-07-20 11:01:14.926
25.0, 147.07447851592048, 0.0, 0.0, 0.0, 0.0, 0.0, 0.0, 0.0, 0.048, 0.228, 0.98, 192.0, 0.0, 0.0, 0.0, 0.0, 0.0, 0.0, 0.0, 0.0, 0.0, 1.689843674926956E9, 0.0, 2023-07-20 11:01:14.926
26.0, 112.22810891009676, 0.0, 0.0, 0.0, 0.0, 0.0, 0.0, 0.0, 0.048, 0.228, 0.98, 192.0, 0.0, 0.0, 0.0, 0.0, 0.0, 0.0, 0.0, 0.0, 0.0, 1.689843674926975E9, 0.0, 2023-07-20 11:01:14.926
27.0, 7.174909970153567, 0.0, 0.0, 0.0, 0.0, 0.0, 0.0, 0.0, 0.048, 0.228, 0.98, 192.0, 0.0, 0.0, 0.0, 0.0, 0.0, 0.0, 0.0, 0.0, 0.0, 1.6898436749269943E9, 0.0, 2023-07-20 11:01:14.926
28.0, -144.74989709256855, 0.0, 0.0, 0.0, 0.0, 0.0, 0.0, 0.0, 0.048, 0.228, 0.98, 192.0, 0.0, 0.0, 0.0, 0.0, 0.0, 0.0, 0.0, 0.0, 0.0, 1.6898436749270136E9, 0.0, 2023-07-20 11:01:14.927
29.0, -114.30682114444032, 0.0, 0.0, 0.0, 0.0, 0.0, 0.0, 0.0, 0.048, 0.228, 0.98, 192.0, 0.0, 0.0, 0.0, 0.0, 0.0, 0.0, 0.0, 0.0, 0.0, 1.6898436749270327E9, 0.0, 2023-07-20 11:01:14.927
30.0, -66.85406766582342, 0.0, 0.0, 0.0, 0.0, 0.0, 0.0, 0.0, 0.048, 0.228, 0.98, 192.0, 0.0, 0.0, 0.0, 0.0, 0.0, 0.0, 0.0, 0.0, 0.0, 1.6898436749270523E9, 0.0, 2023-07-20 11:01:14.927
31.0, -64.8647624093011, 0.0, 0.0, 0.0, 0.0, 0.0, 0.0, 0.0, 0.05, 0.224, 0.982, 192.0, 1.0, 144.0, 7.0, 0.0, 30.0, 176.0, 0.0, 0.0, 0.0, 1.6898436749270809E9, 0.0, 2023-07-20 11:01:14.927
32.0, 10.371209427262476, 0.0, 0.0, 0.0, 0.0, 0.0, 0.0, 0.0, 0.05, 0.224, 0.982, 192.0, 0.0, 0.0, 0.0, 0.0, 0.0, 0.0, 0.0, 0.0, 0.0, 1.689843674927101E9, 0.0, 2023-07-20 11:01:14.927
33.0, 35.405163217206386, 0.0, 0.0, 0.0, 0.0, 0.0, 0.0, 0.0, 0.05, 0.224, 0.982, 192.0, 0.0, 0.0, 0.0, 0.0, 0.0, 0.0, 0.0, 0.0, 0.0, 1.6898436749271207E9, 0.0, 2023-07-20 11:01:14.927
34.0, 99.53231805948235, 0.0, 0.0, 0.0, 0.0, 0.0, 0.0, 0.0, 0.05, 0.224, 0.982, 192.0, 0.0, 0.0, 0.0, 0.0, 0.0, 0.0, 0.0, 0.0, 0.0, 1.6898436749271407E9, 0.0, 2023-07-20 11:01:14.927
35.0, 109.25532689754093, 0.0, 0.0, 0.0, 0.0, 0.0, 0.0, 0.0, 0.05, 0.224, 0.982, 192.0, 0.0, 0.0, 0.0, 0.0, 0.0, 0.0, 0.0, 0.0, 0.0, 1.6898436749271605E9, 0.0, 2023-07-20 11:01:14.927
36.0, -67.30110255492957, 0.0, 0.0, 0.0, 0.0, 0.0, 0.0, 0.0, 0.05, 0.224, 0.982, 192.0, 0.0, 0.0, 0.0, 0.0, 0.0, 0.0, 0.0, 0.0, 0.0, 1.6898436749271803E9, 0.0, 2023-07-20 11:01:14.927
37.0, -168.6215601708365, 0.0, 0.0, 0.0, 0.0, 0.0, 0.0, 0.0, 0.05, 0.224, 0.982, 192.0, 0.0, 0.0, 0.0, 0.0, 0.0, 0.0, 0.0, 0.0, 0.0, 1.6898436749272003E9, 0.0, 2023-07-20 11:01:14.927
38.0, -178.92571436473304, 0.0, 0.0, 0.0, 0.0, 0.0, 0.0, 0.0, 0.05, 0.224, 0.982, 192.0, 0.0, 0.0, 0.0, 0.0, 0.0, 0.0, 0.0, 0.0, 0.0, 1.6898436749272203E9, 0.0, 2023-07-20 11:01:14.927
39.0, -78.8122509494127, 0.0, 0.0, 0.0, 0.0, 0.0, 0.0, 0.0, 0.05, 0.224, 0.982, 192.0, 0.0, 0.0, 0.0, 0.0, 0.0, 0.0, 0.0, 0.0, 0.0, 1.6898436749272404E9, 0.0, 2023-07-20 11:01:14.927
40.0, 111.0658181984208, 0.0, 0.0, 0.0, 0.0, 0.0, 0.0, 0.0, 0.05, 0.224, 0.982, 192.0, 0.0, 0.0, 0.0, 0.0, 0.0, 0.0, 0.0, 0.0, 0.0, 1.6898436749272602E9, 0.0, 2023-07-20 11:01:14.927
41.0, 112.85395775484535, 0.0, 0.0, 0.0, 0.0, 0.0, 0.0, 0.0, 0.048, 0.222, 0.982, 192.0, 1.0, 128.0, 6.0, 240.0, 30.0, 176.0, 0.0, 0.0, 0.0, 1.6898436749272816E9, 0.0, 2023-07-20 11:01:14.927
42.0, 45.39639298872864, 0.0, 0.0, 0.0, 0.0, 0.0, 0.0, 0.0, 0.048, 0.222, 0.982, 192.0, 0.0, 0.0, 0.0, 0.0, 0.0, 0.0, 0.0, 0.0, 0.0, 1.6898436749272995E9, 0.0, 2023-07-20 11:01:14.927
43.0, -3.173947712653603, 0.0, 0.0, 0.0, 0.0, 0.0, 0.0, 0.0, 0.048, 0.222, 0.982, 192.0, 0.0, 0.0, 0.0, 0.0, 0.0, 0.0, 0.0, 0.0, 0.0, 1.68984367492732E9, 0.0, 2023-07-20 11:01:14.927
44.0, -81.44975679513894, 0.0, 0.0, 0.0, 0.0, 0.0, 0.0, 0.0, 0.048, 0.222, 0.982, 192.0, 0.0, 0.0, 0.0, 0.0, 0.0, 0.0, 0.0, 0.0, 0.0, 1.68984367492734E9, 0.0, 2023-07-20 11:01:14.927
45.0, -67.07758511037649, 0.0, 0.0, 0.0, 0.0, 0.0, 0.0, 0.0, 0.048, 0.222, 0.982, 192.0, 0.0, 0.0, 0.0, 0.0, 0.0, 0.0, 0.0, 0.0, 0.0, 1.68984367492736E9, 0.0, 2023-07-20 11:01:14.927
46.0, -100.11346341532034, 0.0, 0.0, 0.0, 0.0, 0.0, 0.0, 0.0, 0.048, 0.222, 0.982, 192.0, 0.0, 0.0, 0.0, 0.0, 0.0, 0.0, 0.0, 0.0, 0.0, 1.6898436749273798E9, 0.0, 2023-07-20 11:01:14.927
47.0, -131.6741265862139, 0.0, 0.0, 0.0, 0.0, 0.0, 0.0, 0.0, 0.048, 0.222, 0.982, 192.0, 0.0, 0.0, 0.0, 0.0, 0.0, 0.0, 0.0, 0.0, 0.0, 1.6898436749273996E9, 0.0, 2023-07-20 11:01:14.927
48.0, -0.715255822569826, 0.0, 0.0, 0.0, 0.0, 0.0, 0.0, 0.0, 0.048, 0.222, 0.982, 192.0, 0.0, 0.0, 0.0, 0.0, 0.0, 0.0, 0.0, 0.0, 0.0, 1.6898436749274197E9, 0.0, 2023-07-20 11:01:14.927
49.0, 97.63241978078125, 0.0, 0.0, 0.0, 0.0, 0.0, 0.0, 0.0, 0.048, 0.222, 0.982, 192.0, 0.0, 0.0, 0.0, 0.0, 0.0, 0.0, 0.0, 0.0, 0.0, 1.6898436749274397E9, 0.0, 2023-07-20 11:01:14.927
50.0, 146.2698157155294, 0.0, 0.0, 0.0, 0.0, 0.0, 0.0, 0.0, 0.048, 0.222, 0.982, 192.0, 0.0, 0.0, 0.0, 0.0, 0.0, 0.0, 0.0, 0.0, 0.0, 1.6898436749274597E9, 0.0, 2023-07-20 11:01:14.927
51.0, 76.46531778160546, 0.0, 0.0, 0.0, 0.0, 0.0, 0.0, 0.0, 0.04, 0.228, 0.982, 192.0, 1.0, 64.0, 7.0, 32.0, 30.0, 176.0, 0.0, 0.0, 0.0, 1.6898436749274795E9, 0.0, 2023-07-20 11:01:14.927
52.0, -133.70813533164684, 0.0, 0.0, 0.0, 0.0, 0.0, 0.0, 0.0, 0.04, 0.228, 0.982, 192.0, 0.0, 0.0, 0.0, 0.0, 0.0, 0.0, 0.0, 0.0, 0.0, 1.6898436749274993E9, 0.0, 2023-07-20 11:01:14.927
53.0, -178.8139556424565, 0.0, 0.0, 0.0, 0.0, 0.0, 0.0, 0.0, 0.04, 0.228, 0.982, 192.0, 0.0, 0.0, 0.0, 0.0, 0.0, 0.0, 0.0, 0.0, 0.0, 1.6898436749275196E9, 0.0, 2023-07-20 11:01:14.927
54.0, -116.1173124453202, 0.0, 0.0, 0.0, 0.0, 0.0, 0.0, 0.0, 0.04, 0.228, 0.982, 192.0, 0.0, 0.0, 0.0, 0.0, 0.0, 0.0, 0.0, 0.0, 0.0, 1.6898436749275396E9, 0.0, 2023-07-20 11:01:14.927
55.0, -31.35949747079581, 0.0, 0.0, 0.0, 0.0, 0.0, 0.0, 0.0, 0.04, 0.228, 0.982, 192.0, 0.0, 0.0, 0.0, 0.0, 0.0, 0.0, 0.0, 0.0, 0.0, 1.6898436749275594E9, 0.0, 2023-07-20 11:01:14.927
56.0, 79.14752711624232, 0.0, 0.0, 0.0, 0.0, 0.0, 0.0, 0.0, 0.04, 0.228, 0.982, 192.0, 0.0, 0.0, 0.0, 0.0, 0.0, 0.0, 0.0, 0.0, 0.0, 1.6898436749275796E9, 0.0, 2023-07-20 11:01:14.927
57.0, 45.776372644468864, 0.0, 0.0, 0.0, 0.0, 0.0, 0.0, 0.0, 0.04, 0.228, 0.982, 192.0, 0.0, 0.0, 0.0, 0.0, 0.0, 0.0, 0.0, 0.0, 0.0, 1.6898436749275997E9, 0.0, 2023-07-20 11:01:14.927
58.0, 33.95229982761143, 0.0, 0.0, 0.0, 0.0, 0.0, 0.0, 0.0, 0.04, 0.228, 0.982, 192.0, 0.0, 0.0, 0.0, 0.0, 0.0, 0.0, 0.0, 0.0, 0.0, 1.6898436749276192E9, 0.0, 2023-07-20 11:01:14.927
59.0, 59.634454206759244, 0.0, 0.0, 0.0, 0.0, 0.0, 0.0, 0.0, 0.04, 0.228, 0.982, 192.0, 0.0, 0.0, 0.0, 0.0, 0.0, 0.0, 0.0, 0.0, 0.0, 1.6898436749276392E9, 0.0, 2023-07-20 11:01:14.927
60.0, -33.79583761642428, 0.0, 0.0, 0.0, 0.0, 0.0, 0.0, 0.0, 0.04, 0.228, 0.982, 192.0, 0.0, 0.0, 0.0, 0.0, 0.0, 0.0, 0.0, 0.0, 0.0, 1.6898436749276593E9, 0.0, 2023-07-20 11:01:14.927
61.0, -98.68295177018068, 0.0, 0.0, 0.0, 0.0, 0.0, 0.0, 0.0, 0.04, 0.226, 0.986, 192.0, 1.0, 64.0, 7.0, 16.0, 30.0, 208.0, 0.0, 0.0, 0.0, 1.6898436749276788E9, 0.0, 2023-07-20 11:01:14.927
62.0, -166.98988282559907, 0.0, 0.0, 0.0, 0.0, 0.0, 0.0, 0.0, 0.04, 0.226, 0.986, 192.0, 0.0, 0.0, 0.0, 0.0, 0.0, 0.0, 0.0, 0.0, 0.0, 1.6898436749276989E9, 0.0, 2023-07-20 11:01:14.927
63.0, -143.27468195851827, 0.0, 0.0, 0.0, 0.0, 0.0, 0.0, 0.0, 0.04, 0.226, 0.986, 192.0, 0.0, 0.0, 0.0, 0.0, 0.0, 0.0, 0.0, 0.0, 0.0, 1.689843674927719E9, 0.0, 2023-07-20 11:01:14.927
64.0, 61.93668388565587, 0.0, 0.0, 0.0, 0.0, 0.0, 0.0, 0.0, 0.04, 0.226, 0.986, 192.0, 0.0, 0.0, 0.0, 0.0, 0.0, 0.0, 0.0, 0.0, 0.0, 1.689843674927739E9, 0.0, 2023-07-20 11:01:14.927
65.0, 146.35922269335066, 0.0, 0.0, 0.0, 0.0, 0.0, 0.0, 0.0, 0.04, 0.226, 0.986, 192.0, 0.0, 0.0, 0.0, 0.0, 0.0, 0.0, 0.0, 0.0, 0.0, 1.6898436749277587E9, 0.0, 2023-07-20 11:01:14.927
66.0, 115.24559441156322, 0.0, 0.0, 0.0, 0.0, 0.0, 0.0, 0.0, 0.04, 0.226, 0.986, 192.0, 0.0, 0.0, 0.0, 0.0, 0.0, 0.0, 0.0, 0.0, 0.0, 1.6898436749277785E9, 0.0, 2023-07-20 11:01:14.927
67.0, 9.678305349147958, 0.0, 0.0, 0.0, 0.0, 0.0, 0.0, 0.0, 0.04, 0.226, 0.986, 192.0, 0.0, 0.0, 0.0, 0.0, 0.0, 0.0, 0.0, 0.0, 0.0, 1.6898436749277985E9, 0.0, 2023-07-20 11:01:14.927
68.0, -146.58274013790373, 0.0, 0.0, 0.0, 0.0, 0.0, 0.0, 0.0, 0.04, 0.226, 0.986, 192.0, 0.0, 0.0, 0.0, 0.0, 0.0, 0.0, 0.0, 0.0, 0.0, 1.6898436749278183E9, 0.0, 2023-07-20 11:01:14.927
69.0, -117.81604502392352, 0.0, 0.0, 0.0, 0.0, 0.0, 0.0, 0.0, 0.04, 0.226, 0.986, 192.0, 0.0, 0.0, 0.0, 0.0, 0.0, 0.0, 0.0, 0.0, 0.0, 1.6898436749278383E9, 0.0, 2023-07-20 11:01:14.927
70.0, -67.47991651057202, 0.0, 0.0, 0.0, 0.0, 0.0, 0.0, 0.0, 0.04, 0.226, 0.986, 192.0, 0.0, 0.0, 0.0, 0.0, 0.0, 0.0, 0.0, 0.0, 0.0, 1.6898436749278584E9, 0.0, 2023-07-20 11:01:14.927
71.0, -61.668462952192186, 0.0, 0.0, 0.0, 0.0, 0.0, 0.0, 0.0, 0.04, 0.22, 0.986, 192.0, 1.0, 64.0, 6.0, 224.0, 30.0, 208.0, 0.0, 0.0, 0.0, 1.6898436749278784E9, 0.0, 2023-07-20 11:01:14.927
72.0, 12.360514683784805, 0.0, 0.0, 0.0, 0.0, 0.0, 0.0, 0.0, 0.04, 0.22, 0.986, 192.0, 0.0, 0.0, 0.0, 0.0, 0.0, 0.0, 0.0, 0.0, 0.0, 1.6898436749278984E9, 0.0, 2023-07-20 11:01:14.927
73.0, 33.438209705139364, 0.0, 0.0, 0.0, 0.0, 0.0, 0.0, 0.0, 0.04, 0.22, 0.986, 192.0, 0.0, 0.0, 0.0, 0.0, 0.0, 0.0, 0.0, 0.0, 0.0, 1.689843674927918E9, 0.0, 2023-07-20 11:01:14.927
74.0, 95.39724533525055, 0.0, 0.0, 0.0, 0.0, 0.0, 0.0, 0.0, 0.04, 0.22, 0.986, 192.0, 0.0, 0.0, 0.0, 0.0, 0.0, 0.0, 0.0, 0.0, 0.0, 1.689843674927938E9, 0.0, 2023-07-20 11:01:14.927
75.0, 108.04833269695435, 0.0, 0.0, 0.0, 0.0, 0.0, 0.0, 0.0, 0.04, 0.22, 0.986, 192.0, 0.0, 0.0, 0.0, 0.0, 0.0, 0.0, 0.0, 0.0, 0.0, 1.6898436749279583E9, 0.0, 2023-07-20 11:01:14.927
76.0, -64.08245135336534, 0.0, 0.0, 0.0, 0.0, 0.0, 0.0, 0.0, 0.04, 0.22, 0.986, 192.0, 0.0, 0.0, 0.0, 0.0, 0.0, 0.0, 0.0, 0.0, 0.0, 1.6898436749279785E9, 0.0, 2023-07-20 11:01:14.927
77.0, -165.4923159470935, 0.0, 0.0, 0.0, 0.0, 0.0, 0.0, 0.0, 0.04, 0.22, 0.986, 192.0, 0.0, 0.0, 0.0, 0.0, 0.0, 0.0, 0.0, 0.0, 0.0, 1.6898436749279983E9, 0.0, 2023-07-20 11:01:14.927
78.0, -179.95389460967715, 0.0, 0.0, 0.0, 0.0, 0.0, 0.0, 0.0, 0.04, 0.22, 0.986, 192.0, 0.0, 0.0, 0.0, 0.0, 0.0, 0.0, 0.0, 0.0, 0.0, 1.6898436749280183E9, 0.0, 2023-07-20 11:01:14.928
79.0, -82.03090215097691, 0.0, 0.0, 0.0, 0.0, 0.0, 0.0, 0.0, 0.04, 0.22, 0.986, 192.0, 0.0, 0.0, 0.0, 0.0, 0.0, 0.0, 0.0, 0.0, 0.0, 1.689843674928038E9, 0.0, 2023-07-20 11:01:14.928
80.0, 111.42344610970571, 0.0, 0.0, 0.0, 0.0, 0.0, 0.0, 0.0, 0.042, 0.224, 0.98, 192.0, 1.0, 80.0, 7.0, 0.0, 30.0, 160.0, 0.0, 0.0, 0.0, 1.6898436749280665E9, 0.0, 2023-07-20 11:01:14.928
81.0, 116.4749403566051, 0.0, 0.0, 0.0, 0.0, 0.0, 0.0, 0.0, 0.042, 0.224, 0.98, 192.0, 0.0, 0.0, 0.0, 0.0, 0.0, 0.0, 0.0, 0.0, 0.0, 1.6898436749280856E9, 0.0, 2023-07-20 11:01:14.928
82.0, 48.01154708999957, 0.0, 0.0, 0.0, 0.0, 0.0, 0.0, 0.0, 0.042, 0.224, 0.98, 192.0, 0.0, 0.0, 0.0, 0.0, 0.0, 0.0, 0.0, 0.0, 0.0, 1.6898436749281058E9, 0.0, 2023-07-20 11:01:14.928
83.0, -4.962087269078168, 0.0, 0.0, 0.0, 0.0, 0.0, 0.0, 0.0, 0.042, 0.224, 0.98, 192.0, 0.0, 0.0, 0.0, 0.0, 0.0, 0.0, 0.0, 0.0, 0.0, 1.6898436749281259E9, 0.0, 2023-07-20 11:01:14.928
84.0, -85.4283673081836, 0.0, 0.0, 0.0, 0.0, 0.0, 0.0, 0.0, 0.042, 0.224, 0.98, 192.0, 0.0, 0.0, 0.0, 0.0, 0.0, 0.0, 0.0, 0.0, 0.0, 1.6898436749281452E9, 0.0, 2023-07-20 11:01:14.928
85.0, -68.37398628878431, 0.0, 0.0, 0.0, 0.0, 0.0, 0.0, 0.0, 0.042, 0.224, 0.98, 192.0, 0.0, 0.0, 0.0, 0.0, 0.0, 0.0, 0.0, 0.0, 0.0, 1.6898436749281676E9, 0.0, 2023-07-20 11:01:14.928
86.0, -97.00657093603265, 0.0, 0.0, 0.0, 0.0, 0.0, 0.0, 0.0, 0.042, 0.224, 0.98, 192.0, 0.0, 0.0, 0.0, 0.0, 0.0, 0.0, 0.0, 0.0, 0.0, 1.6898436749281857E9, 0.0, 2023-07-20 11:01:14.928
87.0, -128.85780678484522, 0.0, 0.0, 0.0, 0.0, 0.0, 0.0, 0.0, 0.042, 0.224, 0.98, 192.0, 0.0, 0.0, 0.0, 0.0, 0.0, 0.0, 0.0, 0.0, 0.0, 1.689843674928213E9, 0.0, 2023-07-20 11:01:14.928
88.0, -2.212822701075399, 0.0, 0.0, 0.0, 0.0, 0.0, 0.0, 0.0, 0.042, 0.224, 0.98, 192.0, 0.0, 0.0, 0.0, 0.0, 0.0, 0.0, 0.0, 0.0, 0.0, 1.6898436749282331E9, 0.0, 2023-07-20 11:01:14.928
89.0, 93.6761610121919, 0.0, 0.0, 0.0, 0.0, 0.0, 0.0, 0.0, 0.042, 0.224, 0.98, 192.0, 0.0, 0.0, 0.0, 0.0, 0.0, 0.0, 0.0, 0.0, 0.0, 1.689843675406516E9, 0.0, 2023-07-20 11:01:15.406
90.0, 144.928711048211, 0.0, 0.0, 0.0, 0.0, 0.0, 0.0, 0.0, 0.042, 0.212, 0.982, 192.0, 1.0, 80.0, 6.0, 160.0, 30.0, 176.0, 0.0, 0.0, 0.0, 1.6898436754066296E9, 0.0, 2023-07-20 11:01:15.406
91.0, 79.54985851643784, 0.0, 0.0, 0.0, 0.0, 0.0, 0.0, 0.0, 0.042, 0.212, 0.982, 192.0, 0.0, 0.0, 0.0, 0.0, 0.0, 0.0, 0.0, 0.0, 0.0, 1.689843675406743E9, 0.0, 2023-07-20 11:01:15.406
92.0, -131.45060914166083, 0.0, 0.0, 0.0, 0.0, 0.0, 0.0, 0.0, 0.042, 0.212, 0.982, 192.0, 0.0, 0.0, 0.0, 0.0, 0.0, 0.0, 0.0, 0.0, 0.0, 1.6898436754067724E9, 0.0, 2023-07-20 11:01:15.406
93.0, -181.40675799927212, 0.0, 0.0, 0.0, 0.0, 0.0, 0.0, 0.0, 0.042, 0.212, 0.982, 192.0, 0.0, 0.0, 0.0, 0.0, 0.0, 0.0, 0.0, 0.0, 0.0, 1.689843675406797E9, 0.0, 2023-07-20 11:01:15.406
94.0, -119.89475725826708, 0.0, 0.0, 0.0, 0.0, 0.0, 0.0, 0.0, 0.042, 0.212, 0.982, 192.0, 0.0, 0.0, 0.0, 0.0, 0.0, 0.0, 0.0, 0.0, 0.0, 1.6898436754068196E9, 0.0, 2023-07-20 11:01:15.406
95.0, -31.784180615446644, 0.0, 0.0, 0.0, 0.0, 0.0, 0.0, 0.0, 0.042, 0.212, 0.982, 192.0, 0.0, 0.0, 0.0, 0.0, 0.0, 0.0, 0.0, 0.0, 0.0, 1.6898436754068415E9, 0.0, 2023-07-20 11:01:15.406
96.0, 82.43323355117245, 0.0, 0.0, 0.0, 0.0, 0.0, 0.0, 0.0, 0.042, 0.212, 0.982, 192.0, 0.0, 0.0, 0.0, 0.0, 0.0, 0.0, 0.0, 0.0, 0.0, 1.6898436754068651E9, 0.0, 2023-07-20 11:01:15.406
97.0, 48.90561686821185, 0.0, 0.0, 0.0, 0.0, 0.0, 0.0, 0.0, 0.042, 0.212, 0.982, 192.0, 0.0, 0.0, 0.0, 0.0, 0.0, 0.0, 0.0, 0.0, 0.0, 1.6898436754068873E9, 0.0, 2023-07-20 11:01:15.406
98.0, 32.164160271186866, 0.0, 0.0, 0.0, 0.0, 0.0, 0.0, 0.0, 0.042, 0.212, 0.982, 192.0, 0.0, 0.0, 0.0, 0.0, 0.0, 0.0, 0.0, 0.0, 0.0, 1.6898436754069097E9, 0.0, 2023-07-20 11:01:15.406
99.0, 55.29821578242967, 0.0, 0.0, 0.0, 0.0, 0.0, 0.0, 0.0, 0.042, 0.212, 0.982, 192.0, 0.0, 0.0, 0.0, 0.0, 0.0, 0.0, 0.0, 0.0, 0.0, 1.689843675406931E9, 0.0, 2023-07-20 11:01:15.406
100.0, -34.84636960582371, 0.0, 0.0, 0.0, 0.0, 0.0, 0.0, 0.0, 0.044, 0.212, 0.986, 192.0, 1.0, 96.0, 6.0, 160.0, 30.0, 208.0, 0.0, 0.0, 0.0, 1.6898436754069512E9, 0.0, 2023-07-20 11:01:15.406
101.0, -95.77722499099076, 0.0, 0.0, 0.0, 0.0, 0.0, 0.0, 0.0, 0.044, 0.212, 0.986, 192.0, 0.0, 0.0, 0.0, 0.0, 0.0, 0.0, 0.0, 0.0, 0.0, 1.6898436754069707E9, 0.0, 2023-07-20 11:01:15.406
102.0, -164.15121127977505, 0.0, 0.0, 0.0, 0.0, 0.0, 0.0, 0.0, 0.044, 0.212, 0.986, 192.0, 0.0, 0.0, 0.0, 0.0, 0.0, 0.0, 0.0, 0.0, 0.0, 1.6898436754069915E9, 0.0, 2023-07-20 11:01:15.406
103.0, -145.04046977048753, 0.0, 0.0, 0.0, 0.0, 0.0, 0.0, 0.0, 0.044, 0.212, 0.986, 192.0, 0.0, 0.0, 0.0, 0.0, 0.0, 0.0, 0.0, 0.0, 0.0, 1.6898436754070122E9, 0.0, 2023-07-20 11:01:15.407
104.0, 58.40510826171735, 0.0, 0.0, 0.0, 0.0, 0.0, 0.0, 0.0, 0.044, 0.212, 0.986, 192.0, 0.0, 0.0, 0.0, 0.0, 0.0, 0.0, 0.0, 0.0, 0.0, 1.6898436754070313E9, 0.0, 2023-07-20 11:01:15.407
105.0, 145.48750465959367, 0.0, 0.0, 0.0, 0.0, 0.0, 0.0, 0.0, 0.044, 0.212, 0.986, 192.0, 0.0, 0.0, 0.0, 0.0, 0.0, 0.0, 0.0, 0.0, 0.0, 1.6898436754070504E9, 0.0, 2023-07-20 11:01:15.407
106.0, 117.81604502392352, 0.0, 0.0, 0.0, 0.0, 0.0, 0.0, 0.0, 0.044, 0.212, 0.986, 192.0, 0.0, 0.0, 0.0, 0.0, 0.0, 0.0, 0.0, 0.0, 0.0, 1.6898436754070697E9, 0.0, 2023-07-20 11:01:15.407
107.0, 11.153520483198225, 0.0, 0.0, 0.0, 0.0, 0.0, 0.0, 0.0, 0.044, 0.212, 0.986, 192.0, 0.0, 0.0, 0.0, 0.0, 0.0, 0.0, 0.0, 0.0, 0.0, 1.6898436754070888E9, 0.0, 2023-07-20 11:01:15.407
108.0, -148.54969364997075, 0.0, 0.0, 0.0, 0.0, 0.0, 0.0, 0.0, 0.044, 0.212, 0.986, 192.0, 0.0, 0.0, 0.0, 0.0, 0.0, 0.0, 0.0, 0.0, 0.0, 1.6898436754071093E9, 0.0, 2023-07-20 11:01:15.407
109.0, -121.63819332578103, 0.0, 0.0, 0.0, 0.0, 0.0, 0.0, 0.0, 0.044, 0.212, 0.986, 192.0, 0.0, 0.0, 0.0, 0.0, 0.0, 0.0, 0.0, 0.0, 0.0, 1.6898436754071295E9, 0.0, 2023-07-20 11:01:15.407
110.0, -68.0387101219547, 0.0, 0.0, 0.0, 0.0, 0.0, 0.0, 0.0, 0.038, 0.214, 0.982, 192.0, 1.0, 48.0, 6.0, 176.0, 30.0, 176.0, 0.0, 0.0, 0.0, 1.6898436754071498E9, 0.0, 2023-07-20 11:01:15.407
111.0, -58.449811750627966, 0.0, 0.0, 0.0, 0.0, 0.0, 0.0, 0.0, 0.038, 0.214, 0.982, 192.0, 0.0, 0.0, 0.0, 0.0, 0.0, 0.0, 0.0, 0.0, 0.0, 1.689843675407169E9, 0.0, 2023-07-20 11:01:15.407
112.0, 15.44505541861718, 0.0, 0.0, 0.0, 0.0, 0.0, 0.0, 0.0, 0.038, 0.214, 0.982, 192.0, 0.0, 0.0, 0.0, 0.0, 0.0, 0.0, 0.0, 0.0, 0.0, 1.6898436754071875E9, 0.0, 2023-07-20 11:01:15.407
113.0, 32.231215504552786, 0.0, 0.0, 0.0, 0.0, 0.0, 0.0, 0.0, 0.038, 0.214, 0.982, 192.0, 0.0, 0.0, 0.0, 0.0, 0.0, 0.0, 0.0, 0.0, 0.0, 1.6898436754072073E9, 0.0, 2023-07-20 11:01:15.407
114.0, 91.48569005557181, 0.0, 0.0, 0.0, 0.0, 0.0, 0.0, 0.0, 0.038, 0.214, 0.982, 192.0, 0.0, 0.0, 0.0, 0.0, 0.0, 0.0, 0.0, 0.0, 0.0, 1.6898436754072258E9, 0.0, 2023-07-20 11:01:15.407
115.0, 107.02015245201022, 0.0, 0.0, 0.0, 0.0, 0.0, 0.0, 0.0, 0.038, 0.214, 0.982, 192.0, 0.0, 0.0, 0.0, 0.0, 0.0, 0.0, 0.0, 0.0, 0.0, 1.6898436754072452E9, 0.0, 2023-07-20 11:01:15.407
116.0, -60.97555887407767, 0.0, 0.0, 0.0, 0.0, 0.0, 0.0, 0.0, 0.038, 0.214, 0.982, 192.0, 0.0, 0.0, 0.0, 0.0, 0.0, 0.0, 0.0, 0.0, 0.0, 1.6898436754072714E9, 0.0, 2023-07-20 11:01:15.407
117.0, -163.43595545720524, 0.0, 0.0, 0.0, 0.0, 0.0, 0.0, 0.0, 0.038, 0.214, 0.982, 192.0, 0.0, 0.0, 0.0, 0.0, 0.0, 0.0, 0.0, 0.0, 0.0, 1.689843675407293E9, 0.0, 2023-07-20 11:01:15.407
118.0, -182.054958588476, 0.0, 0.0, 0.0, 0.0, 0.0, 0.0, 0.0, 0.038, 0.214, 0.982, 192.0, 0.0, 0.0, 0.0, 0.0, 0.0, 0.0, 0.0, 0.0, 0.0, 1.6898436754073136E9, 0.0, 2023-07-20 11:01:15.407
119.0, -86.30008534194057, 0.0, 0.0, 0.0, 0.0, 0.0, 0.0, 0.0, 0.038, 0.214, 0.982, 192.0, 0.0, 0.0, 0.0, 0.0, 0.0, 0.0, 0.0, 0.0, 0.0, 1.6898436754073334E9, 0.0, 2023-07-20 11:01:15.407
120.0, 110.37291412030628, 0.0, 0.0, 0.0, 0.0, 0.0, 0.0, 0.0, 0.036000000000000004, 0.22, 0.978, 192.0, 1.0, 32.0, 6.0, 224.0, 30.0, 144.0, 0.0, 0.0, 0.0, 1.6898436754073532E9, 0.0, 2023-07-20 11:01:15.407
121.0, 119.04539096896542, 0.0, 0.0, 0.0, 0.0, 0.0, 0.0, 0.0, 0.036000000000000004, 0.22, 0.978, 192.0, 0.0, 0.0, 0.0, 0.0, 0.0, 0.0, 0.0, 0.0, 0.0, 1.6898436754073734E9, 0.0, 2023-07-20 11:01:15.407
122.0, 50.80551514691295, 0.0, 0.0, 0.0, 0.0, 0.0, 0.0, 0.0, 0.036000000000000004, 0.22, 0.978, 192.0, 0.0, 0.0, 0.0, 0.0, 0.0, 0.0, 0.0, 0.0, 0.0, 1.6898436754073937E9, 0.0, 2023-07-20 11:01:15.407
123.0, -5.900860536201065, 0.0, 0.0, 0.0, 0.0, 0.0, 0.0, 0.0, 0.036000000000000004, 0.22, 0.978, 192.0, 0.0, 0.0, 0.0, 0.0, 0.0, 0.0, 0.0, 0.0, 0.0, 1.6898436754074144E9, 0.0, 2023-07-20 11:01:15.407
124.0, -89.8763644547897, 0.0, 0.0, 0.0, 0.0, 0.0, 0.0, 0.0, 0.036000000000000004, 0.22, 0.978, 192.0, 0.0, 0.0, 0.0, 0.0, 0.0, 0.0, 0.0, 0.0, 0.0, 1.6898436754074345E9, 0.0, 2023-07-20 11:01:15.407
125.0, -69.13394560026474, 0.0, 0.0, 0.0, 0.0, 0.0, 0.0, 0.0, 0.036000000000000004, 0.22, 0.978, 192.0, 0.0, 0.0, 0.0, 0.0, 0.0, 0.0, 0.0, 0.0, 0.0, 1.689843675407455E9, 0.0, 2023-07-20 11:01:15.407
126.0, -94.36906509030642, 0.0, 0.0, 0.0, 0.0, 0.0, 0.0, 0.0, 0.036000000000000004, 0.22, 0.978, 192.0, 0.0, 0.0, 0.0, 0.0, 0.0, 0.0, 0.0, 0.0, 0.0, 1.6898436754074757E9, 0.0, 2023-07-20 11:01:15.407
127.0, -126.24265268357429, 0.0, 0.0, 0.0, 0.0, 0.0, 0.0, 0.0, 0.036000000000000004, 0.22, 0.978, 192.0, 0.0, 0.0, 0.0, 0.0, 0.0, 0.0, 0.0, 0.0, 0.0, 1.6898436754074965E9, 0.0, 2023-07-20 11:01:15.407
128.0, -3.598630857304437, 0.0, 0.0, 0.0, 0.0, 0.0, 0.0, 0.0, 0.036000000000000004, 0.22, 0.978, 192.0, 0.0, 0.0, 0.0, 0.0, 0.0, 0.0, 0.0, 0.0, 0.0, 1.6898436754075167E9, 0.0, 2023-07-20 11:01:15.407
129.0, 89.80930922142377, 0.0, 0.0, 0.0, 0.0, 0.0, 0.0, 0.0, 0.036000000000000004, 0.22, 0.978, 192.0, 0.0, 0.0, 0.0, 0.0, 0.0, 0.0, 0.0, 0.0, 0.0, 1.6898436754075372E9, 0.0, 2023-07-20 11:01:15.407
130.0, 144.86165581484508, 0.0, 0.0, 0.0, 0.0, 0.0, 0.0, 0.0, 0.046, 0.218, 0.982, 192.0, 1.0, 112.0, 6.0, 208.0, 30.0, 176.0, 0.0, 0.0, 0.0, 1.6898436754075575E9, 0.0, 2023-07-20 11:01:15.407
