%OpenBCI Raw EXG Data
%Number of channels = 8
%Sample Rate = 250 Hz
%Board = OpenBCI_GUI$BoardCytonSerial
Sample Index, EXG Channel 0, EXG Channel 1, EXG Channel 2, EXG Channel 3, EXG Channel 4, EXG Channel 5, EXG Channel 6, EXG Channel 7, Accel Channel 0, Accel Channel 1, Accel Channel 2, Other, Other, Other, Other, Other, Other, Other, Analog Channel 0, Analog Channel 1, Analog Channel 2, Timestamp, Other, Timestamp (Formatted)
1.0, 5.431473902639616, 187500.0, 187500.0, 187500.0, 187500.0, 187500.0, 187500.0, 187500.0, 0.03, -0.01, 1.002, 192.0, 0.0, 240.0, 255.0, 176.0, 31.0, 80.0, 0.0, 0.0, 0.0, 1.6945955249257548E9, 0.0, 2023-09-13 10:58:44.925
2.0, 46.60338718931523, 187500.0, 187500.0, 187500.0, 187500.0, 187500.0, 187500.0, 187500.0, 0.03, -0.01, 1.002, 192.0, 0.0, 0.0, 0.0, 0.0, 0.0, 0.0, 0.0, 0.0, 0.0, 1.694595524925825E9, 0.0, 2023-09-13 10:58:44.925
3.0, 47.69862266762527, 187500.0, 187500.0, 187500.0, 187500.0, 187500.0, 187500.0, 187500.0, 0.03, -0.01, 1.002, 192.0, 0.0, 0.0, 0.0, 0.0, 0.0, 0.0, 0.0, 0.0, 0.0, 1.6945955249258726E9, 0.0, 2023-09-13 10:58:44.925
0.0, 0.0, 0.0, 0.0, 0.0, 0.0, 0.0, 0.0, 0.0, 0.032, -0.012, 1.004, 192.0, 1.0, 0.0, 255.0, 160.0, 31.0, 96.0, 0.0, 0.0, 0.0, 1.694595525040961E9, 0.0, 2023-09-13 10:58:45.040
1.0, 7.957221026089314, 187500.0, 187500.0, 187500.0, 187500.0, 187500.0, 187500.0, 187500.0, 0.032, -0.012, 1.004, 192.0, 0.0, 0.0, 0.0, 0.0, 0.0, 0.0, 0.0, 0.0, 0.0, 1.6945955255244431E9, 0.0, 2023-09-13 10:58:45.524
2.0, 46.67044242268115, 187500.0, 187500.0, 187500.0, 187500.0, 187500.0, 187500.0, 187500.0, 0.032, -0.012, 1.004, 192.0, 0.0, 0.0, 0.0, 0.0, 0.0, 0.0, 0.0, 0.0, 0.0, 1.6945955255249643E9, 0.0, 2023-09-13 10:58:45.524
3.0, 50.581997702359885, 187500.0, 187500.0, 187500.0, 187500.0, 187500.0, 187500.0, 187500.0, 0.032, -0.012, 1.004, 192.0, 0.0, 0.0, 0.0, 0.0, 0.0, 0.0, 0.0, 0.0, 0.0, 1.6945955255250165E9, 0.0, 2023-09-13 10:58:45.525
4.0, 6.8172820588686545, 187500.0, 187500.0, 187500.0, 187500.0, 187500.0, 187500.0, 187500.0, 0.032, -0.012, 1.004, 192.0, 0.0, 0.0, 0.0, 0.0, 0.0, 0.0, 0.0, 0.0, 0.0, 1.694595525525058E9, 0.0, 2023-09-13 10:58:45.525
5.0, -138.29024294498478, 187500.0, 187500.0, 187500.0, 187500.0, 187500.0, 187500.0, 187500.0, 0.032, -0.012, 1.004, 192.0, 0.0, 0.0, 0.0, 0.0, 0.0, 0.0, 0.0, 0.0, 0.0, 1.6945955255251005E9, 0.0, 2023-09-13 10:58:45.525
6.0, -170.5214584495376, 187500.0, 187500.0, 187500.0, 187500.0, 187500.0, 187500.0, 187500.0, 0.032, -0.012, 1.004, 192.0, 0.0, 0.0, 0.0, 0.0, 0.0, 0.0, 0.0, 0.0, 0.0, 1.69459552552514E9, 0.0, 2023-09-13 10:58:45.525
7.0, -166.85577235886723, 187500.0, 187500.0, 187500.0, 187500.0, 187500.0, 187500.0, 187500.0, 0.032, -0.012, 1.004, 192.0, 0.0, 0.0, 0.0, 0.0, 0.0, 0.0, 0.0, 0.0, 0.0, 1.6945955255251784E9, 0.0, 2023-09-13 10:58:45.525
8.0, -125.90737651674469, 187500.0, 187500.0, 187500.0, 187500.0, 187500.0, 187500.0, 187500.0, 0.026000000000000002, -0.012, 1.01, 192.0, 0.0, 208.0, 255.0, 160.0, 31.0, 144.0, 0.0, 0.0, 0.0, 1.694595525525218E9, 0.0, 2023-09-13 10:58:45.525
9.0, 13.99219202902222, 187500.0, 187500.0, 187500.0, 187500.0, 187500.0, 187500.0, 187500.0, 0.026000000000000002, -0.012, 1.01, 192.0, 0.0, 0.0, 0.0, 0.0, 0.0, 0.0, 0.0, 0.0, 0.0, 1.6945955255252652E9, 0.0, 2023-09-13 10:58:45.525
10.0, 41.61894817578175, 187500.0, 187500.0, 187500.0, 187500.0, 187500.0, 187500.0, 187500.0, 0.026000000000000002, -0.012, 1.01, 192.0, 0.0, 0.0, 0.0, 0.0, 0.0, 0.0, 0.0, 0.0, 0.0, 1.694595525525305E9, 0.0, 2023-09-13 10:58:45.525
11.0, 42.267148764985656, 187500.0, 187500.0, 187500.0, 187500.0, 187500.0, 187500.0, 187500.0, 0.026000000000000002, -0.012, 1.01, 192.0, 0.0, 0.0, 0.0, 0.0, 0.0, 0.0, 0.0, 0.0, 0.0, 1.694595525525346E9, 0.0, 2023-09-13 10:58:45.525
12.0, 7.845462303812779, 187500.0, 187500.0, 187500.0, 187500.0, 187500.0, 187500.0, 187500.0, 0.026000000000000002, -0.012, 1.01, 192.0, 0.0, 0.0, 0.0, 0.0, 0.0, 0.0, 0.0, 0.0, 0.0, 1.694595525525385E9, 0.0, 2023-09-13 10:58:45.525
13.0, -129.61776609632565, 187500.0, 187500.0, 187500.0, 187500.0, 187500.0, 187500.0, 187500.0, 0.026000000000000002, -0.012, 1.01, 192.0, 0.0, 0.0, 0.0, 0.0, 0.0, 0.0, 0.0, 0.0, 0.0, 1.6945955255254238E9, 0.0, 2023-09-13 10:58:45.525
14.0, -165.4923159470935, 187500.0, 187500.0, 187500.0, 187500.0, 187500.0, 187500.0, 187500.0, 0.026000000000000002, -0.012, 1.01, 192.0, 0.0, 0.0, 0.0, 0.0, 0.0, 0.0, 0.0, 0.0, 0.0, 1.6945955255254648E9, 0.0, 2023-09-13 10:58:45.525
15.0, -171.41552822774986, 187500.0, 187500.0, 187500.0, 187500.0, 187500.0, 187500.0, 187500.0, 0.026000000000000002, -0.012, 1.01, 192.0, 0.0, 0.0, 0.0, 0.0, 0.0, 0.0, 0.0, 0.0, 0.0, 1.6945955255255089E9, 0.0, 2023-09-13 10:58:45.525
16.0, -134.57985336540384, 187500.0, 187500.0, 187500.0, 187500.0, 187500.0, 187500.0, 187500.0, 0.026000000000000002, -0.012, 1.01, 192.0, 0.0, 0.0, 0.0, 0.0, 0.0, 0.0, 0.0, 0.0, 0.0, 1.6945955255255494E9, 0.0, 2023-09-13 10:58:45.525
17.0, 12.807549572890947, 187500.0, 187500.0, 187500.0, 187500.0, 187500.0, 187500.0, 187500.0, 0.026000000000000002, -0.012, 1.01, 192.0, 0.0, 0.0, 0.0, 0.0, 0.0, 0.0, 0.0, 0.0, 0.0, 1.694595525525761E9, 0.0, 2023-09-13 10:58:45.525
18.0, 49.48676222404983, 187500.0, 187500.0, 187500.0, 187500.0, 187500.0, 187500.0, 187500.0, 0.024, -0.014, 1.01, 192.0, 0.0, 192.0, 255.0, 144.0, 31.0, 144.0, 0.0, 0.0, 0.0, 1.6945955255258152E9, 0.0, 2023-09-13 10:58:45.525
19.0, 47.810381389901806, 187500.0, 187500.0, 187500.0, 187500.0, 187500.0, 187500.0, 187500.0, 0.024, -0.014, 1.01, 192.0, 0.0, 0.0, 0.0, 0.0, 0.0, 0.0, 0.0, 0.0, 0.0, 1.6945955255258648E9, 0.0, 2023-09-13 10:58:45.525
20.0, 4.135072724231806, 187500.0, 187500.0, 187500.0, 187500.0, 187500.0, 187500.0, 187500.0, 0.024, -0.014, 1.01, 192.0, 0.0, 0.0, 0.0, 0.0, 0.0, 0.0, 0.0, 0.0, 0.0, 1.6945955255259109E9, 0.0, 2023-09-13 10:58:45.525
21.0, -138.35729817835073, 187500.0, 187500.0, 187500.0, 187500.0, 187500.0, 187500.0, 187500.0, 0.024, -0.014, 1.01, 192.0, 0.0, 0.0, 0.0, 0.0, 0.0, 0.0, 0.0, 0.0, 0.0, 1.6945955255259578E9, 0.0, 2023-09-13 10:58:45.525
22.0, -165.98405432511024, 187500.0, 187500.0, 187500.0, 187500.0, 187500.0, 187500.0, 187500.0, 0.024, -0.014, 1.01, 192.0, 0.0, 0.0, 0.0, 0.0, 0.0, 0.0, 0.0, 0.0, 0.0, 1.6945955255260057E9, 0.0, 2023-09-13 10:58:45.526
23.0, -162.9889205680991, 187500.0, 187500.0, 187500.0, 187500.0, 187500.0, 187500.0, 187500.0, 0.024, -0.014, 1.01, 192.0, 0.0, 0.0, 0.0, 0.0, 0.0, 0.0, 0.0, 0.0, 0.0, 1.69459552552606E9, 0.0, 2023-09-13 10:58:45.526
24.0, -128.61193759583685, 187500.0, 187500.0, 187500.0, 187500.0, 187500.0, 187500.0, 187500.0, 0.024, -0.014, 1.01, 192.0, 0.0, 0.0, 0.0, 0.0, 0.0, 0.0, 0.0, 0.0, 0.0, 1.6945955255261073E9, 0.0, 2023-09-13 10:58:45.526
25.0, 8.001924514999928, 187500.0, 187500.0, 187500.0, 187500.0, 187500.0, 187500.0, 187500.0, 0.024, -0.014, 1.01, 192.0, 0.0, 0.0, 0.0, 0.0, 0.0, 0.0, 0.0, 0.0, 0.0, 1.6945955255261538E9, 0.0, 2023-09-13 10:58:45.526
26.0, 41.90952085370074, 187500.0, 187500.0, 187500.0, 187500.0, 187500.0, 187500.0, 187500.0, 0.024, -0.014, 1.01, 192.0, 0.0, 0.0, 0.0, 0.0, 0.0, 0.0, 0.0, 0.0, 0.0, 1.6945955255262005E9, 0.0, 2023-09-13 10:58:45.526
27.0, 47.09512556733198, 187500.0, 187500.0, 187500.0, 187500.0, 187500.0, 187500.0, 187500.0, 0.026000000000000002, -0.016, 1.01, 192.0, 0.0, 208.0, 255.0, 128.0, 31.0, 144.0, 0.0, 0.0, 0.0, 1.6945955255262475E9, 0.0, 2023-09-13 10:58:45.526
28.0, 12.271107705963578, 187500.0, 187500.0, 187500.0, 187500.0, 187500.0, 187500.0, 187500.0, 0.026000000000000002, -0.016, 1.01, 192.0, 0.0, 0.0, 0.0, 0.0, 0.0, 0.0, 0.0, 0.0, 0.0, 1.694595525526297E9, 0.0, 2023-09-13 10:58:45.526
29.0, -133.574024864915, 187500.0, 187500.0, 187500.0, 187500.0, 187500.0, 187500.0, 187500.0, 0.026000000000000002, -0.016, 1.01, 192.0, 0.0, 0.0, 0.0, 0.0, 0.0, 0.0, 0.0, 0.0, 0.0, 1.6945955255263448E9, 0.0, 2023-09-13 10:58:45.526
30.0, -170.0297200715208, 187500.0, 187500.0, 187500.0, 187500.0, 187500.0, 187500.0, 187500.0, 0.026000000000000002, -0.016, 1.01, 192.0, 0.0, 0.0, 0.0, 0.0, 0.0, 0.0, 0.0, 0.0, 0.0, 1.6945955255263915E9, 0.0, 2023-09-13 10:58:45.526
31.0, -172.71192940615768, 187500.0, 187500.0, 187500.0, 187500.0, 187500.0, 187500.0, 187500.0, 0.026000000000000002, -0.016, 1.01, 192.0, 0.0, 0.0, 0.0, 0.0, 0.0, 0.0, 0.0, 0.0, 0.0, 1.6945955255264385E9, 0.0, 2023-09-13 10:58:45.526
32.0, -130.55653936344856, 187500.0, 187500.0, 187500.0, 187500.0, 187500.0, 187500.0, 187500.0, 0.026000000000000002, -0.016, 1.01, 192.0, 0.0, 0.0, 0.0, 0.0, 0.0, 0.0, 0.0, 0.0, 0.0, 1.6945955255266259E9, 0.0, 2023-09-13 10:58:45.526
33.0, 15.400351929706567, 187500.0, 187500.0, 187500.0, 187500.0, 187500.0, 187500.0, 187500.0, 0.026000000000000002, -0.016, 1.01, 192.0, 0.0, 0.0, 0.0, 0.0, 0.0, 0.0, 0.0, 0.0, 0.0, 1.694595525526671E9, 0.0, 2023-09-13 10:58:45.526
34.0, 47.31864301188505, 187500.0, 187500.0, 187500.0, 187500.0, 187500.0, 187500.0, 187500.0, 0.026000000000000002, -0.016, 1.01, 192.0, 0.0, 0.0, 0.0, 0.0, 0.0, 0.0, 0.0, 0.0, 0.0, 1.6945955255267117E9, 0.0, 2023-09-13 10:58:45.526
35.0, 42.44596272062811, 187500.0, 187500.0, 187500.0, 187500.0, 187500.0, 187500.0, 187500.0, 0.026000000000000002, -0.016, 1.01, 192.0, 0.0, 0.0, 0.0, 0.0, 0.0, 0.0, 0.0, 0.0, 0.0, 1.6945955255267577E9, 0.0, 2023-09-13 10:58:45.526
36.0, 3.3751134127513667, 187500.0, 187500.0, 187500.0, 187500.0, 187500.0, 187500.0, 187500.0, 0.026000000000000002, -0.016, 1.01, 192.0, 0.0, 0.0, 0.0, 0.0, 0.0, 0.0, 0.0, 0.0, 0.0, 1.6945955255268037E9, 0.0, 2023-09-13 10:58:45.526
37.0, -134.89277778777813, 187500.0, 187500.0, 187500.0, 187500.0, 187500.0, 187500.0, 187500.0, 0.028, -0.01, 1.008, 192.0, 0.0, 224.0, 255.0, 176.0, 31.0, 128.0, 0.0, 0.0, 0.0, 1.694595525526849E9, 0.0, 2023-09-13 10:58:45.526
38.0, -162.13955427879742, 187500.0, 187500.0, 187500.0, 187500.0, 187500.0, 187500.0, 187500.0, 0.028, -0.01, 1.008, 192.0, 0.0, 0.0, 0.0, 0.0, 0.0, 0.0, 0.0, 0.0, 0.0, 1.6945955255268967E9, 0.0, 2023-09-13 10:58:45.526
39.0, -164.06180430195383, 187500.0, 187500.0, 187500.0, 187500.0, 187500.0, 187500.0, 187500.0, 0.028, -0.01, 1.008, 192.0, 0.0, 0.0, 0.0, 0.0, 0.0, 0.0, 0.0, 0.0, 0.0, 1.6945955255269425E9, 0.0, 2023-09-13 10:58:45.526
40.0, -133.35050742036194, 187500.0, 187500.0, 187500.0, 187500.0, 187500.0, 187500.0, 187500.0, 0.028, -0.01, 1.008, 192.0, 0.0, 0.0, 0.0, 0.0, 0.0, 0.0, 0.0, 0.0, 0.0, 1.6945955255269873E9, 0.0, 2023-09-13 10:58:45.526
41.0, 7.353723925796023, 187500.0, 187500.0, 187500.0, 187500.0, 187500.0, 187500.0, 187500.0, 0.028, -0.01, 1.008, 192.0, 0.0, 0.0, 0.0, 0.0, 0.0, 0.0, 0.0, 0.0, 0.0, 1.6945955255270321E9, 0.0, 2023-09-13 10:58:45.527
42.0, 46.625738933770535, 187500.0, 187500.0, 187500.0, 187500.0, 187500.0, 187500.0, 187500.0, 0.028, -0.01, 1.008, 192.0, 0.0, 0.0, 0.0, 0.0, 0.0, 0.0, 0.0, 0.0, 0.0, 1.6945955255270777E9, 0.0, 2023-09-13 10:58:45.527
43.0, 50.53729421344927, 187500.0, 187500.0, 187500.0, 187500.0, 187500.0, 187500.0, 187500.0, 0.028, -0.01, 1.008, 192.0, 0.0, 0.0, 0.0, 0.0, 0.0, 0.0, 0.0, 0.0, 0.0, 1.694595525527124E9, 0.0, 2023-09-13 10:58:45.527
44.0, 9.834767560335107, 187500.0, 187500.0, 187500.0, 187500.0, 187500.0, 187500.0, 187500.0, 0.028, -0.01, 1.008, 192.0, 0.0, 0.0, 0.0, 0.0, 0.0, 0.0, 0.0, 0.0, 0.0, 1.694595525527176E9, 0.0, 2023-09-13 10:58:45.527
45.0, -139.29607144547361, 187500.0, 187500.0, 187500.0, 187500.0, 187500.0, 187500.0, 187500.0, 0.028, -0.01, 1.008, 192.0, 0.0, 0.0, 0.0, 0.0, 0.0, 0.0, 0.0, 0.0, 0.0, 1.6945955255272229E9, 0.0, 2023-09-13 10:58:45.527
46.0, -170.8567346163672, 187500.0, 187500.0, 187500.0, 187500.0, 187500.0, 187500.0, 187500.0, 0.028, -0.01, 1.008, 192.0, 0.0, 0.0, 0.0, 0.0, 0.0, 0.0, 0.0, 0.0, 0.0, 1.6945955255272696E9, 0.0, 2023-09-13 10:58:45.527
47.0, -167.01223457005437, 187500.0, 187500.0, 187500.0, 187500.0, 187500.0, 187500.0, 187500.0, 0.028, -0.008, 1.006, 192.0, 0.0, 224.0, 255.0, 192.0, 31.0, 112.0, 0.0, 0.0, 0.0, 1.6945955255273168E9, 0.0, 2023-09-13 10:58:45.527
48.0, -125.3038794164514, 187500.0, 187500.0, 187500.0, 187500.0, 187500.0, 187500.0, 187500.0, 0.028, -0.008, 1.006, 192.0, 0.0, 0.0, 0.0, 0.0, 0.0, 0.0, 0.0, 0.0, 0.0, 1.6945955255274875E9, 0.0, 2023-09-13 10:58:45.527
49.0, 13.947488540111607, 187500.0, 187500.0, 187500.0, 187500.0, 187500.0, 187500.0, 187500.0, 0.028, -0.008, 1.006, 192.0, 0.0, 0.0, 0.0, 0.0, 0.0, 0.0, 0.0, 0.0, 0.0, 1.6945955255275373E9, 0.0, 2023-09-13 10:58:45.527
50.0, 42.0883348093432, 187500.0, 187500.0, 187500.0, 187500.0, 187500.0, 187500.0, 187500.0, 0.028, -0.008, 1.006, 192.0, 0.0, 0.0, 0.0, 0.0, 0.0, 0.0, 0.0, 0.0, 0.0, 1.694595525527589E9, 0.0, 2023-09-13 10:58:45.527
51.0, 41.68600340914767, 187500.0, 187500.0, 187500.0, 187500.0, 187500.0, 187500.0, 187500.0, 0.028, -0.008, 1.006, 192.0, 0.0, 0.0, 0.0, 0.0, 0.0, 0.0, 0.0, 0.0, 0.0, 1.6945955255277097E9, 0.0, 2023-09-13 10:58:45.527
52.0, 7.599593114804401, 187500.0, 187500.0, 187500.0, 187500.0, 187500.0, 187500.0, 187500.0, 0.028, -0.008, 1.006, 192.0, 0.0, 0.0, 0.0, 0.0, 0.0, 0.0, 0.0, 0.0, 0.0, 1.6945955255278296E9, 0.0, 2023-09-13 10:58:45.527
53.0, -130.22126319661893, 187500.0, 187500.0, 187500.0, 187500.0, 187500.0, 187500.0, 187500.0, 0.028, -0.008, 1.006, 192.0, 0.0, 0.0, 0.0, 0.0, 0.0, 0.0, 0.0, 0.0, 0.0, 1.6945955255279503E9, 0.0, 2023-09-13 10:58:45.527
54.0, -164.97822582462143, 187500.0, 187500.0, 187500.0, 187500.0, 187500.0, 187500.0, 187500.0, 0.028, -0.008, 1.006, 192.0, 0.0, 0.0, 0.0, 0.0, 0.0, 0.0, 0.0, 0.0, 0.0, 1.6945955255280707E9, 0.0, 2023-09-13 10:58:45.528
55.0, -170.38734798280575, 187500.0, 187500.0, 187500.0, 187500.0, 187500.0, 187500.0, 187500.0, 0.028, -0.008, 1.006, 192.0, 0.0, 0.0, 0.0, 0.0, 0.0, 0.0, 0.0, 0.0, 0.0, 1.694595525528192E9, 0.0, 2023-09-13 10:58:45.528
56.0, -132.97052776462172, 187500.0, 187500.0, 187500.0, 187500.0, 187500.0, 187500.0, 187500.0, 0.028, -0.008, 1.006, 192.0, 0.0, 0.0, 0.0, 0.0, 0.0, 0.0, 0.0, 0.0, 0.0, 1.6945955255283127E9, 0.0, 2023-09-13 10:58:45.528
57.0, 12.271107705963578, 187500.0, 187500.0, 187500.0, 187500.0, 187500.0, 187500.0, 187500.0, 0.03, -0.012, 1.004, 192.0, 0.0, 240.0, 255.0, 160.0, 31.0, 96.0, 0.0, 0.0, 0.0, 1.694595525528434E9, 0.0, 2023-09-13 10:58:45.528
58.0, 49.84439013533475, 187500.0, 187500.0, 187500.0, 187500.0, 187500.0, 187500.0, 187500.0, 0.03, -0.012, 1.004, 192.0, 0.0, 0.0, 0.0, 0.0, 0.0, 0.0, 0.0, 0.0, 0.0, 1.6945955255285635E9, 0.0, 2023-09-13 10:58:45.528
59.0, 48.01154708999957, 187500.0, 187500.0, 187500.0, 187500.0, 187500.0, 187500.0, 187500.0, 0.03, -0.012, 1.004, 192.0, 0.0, 0.0, 0.0, 0.0, 0.0, 0.0, 0.0, 0.0, 0.0, 1.6945955255286665E9, 0.0, 2023-09-13 10:58:45.528
60.0, 4.649162846703869, 187500.0, 187500.0, 187500.0, 187500.0, 187500.0, 187500.0, 187500.0, 0.03, -0.012, 1.004, 192.0, 0.0, 0.0, 0.0, 0.0, 0.0, 0.0, 0.0, 0.0, 0.0, 1.694595525528788E9, 0.0, 2023-09-13 10:58:45.528
61.0, -137.26206270004067, 187500.0, 187500.0, 187500.0, 187500.0, 187500.0, 187500.0, 187500.0, 0.03, -0.012, 1.004, 192.0, 0.0, 0.0, 0.0, 0.0, 0.0, 0.0, 0.0, 0.0, 0.0, 1.6945955255289092E9, 0.0, 2023-09-13 10:58:45.528
62.0, -166.4310892142164, 187500.0, 187500.0, 187500.0, 187500.0, 187500.0, 187500.0, 187500.0, 0.03, -0.012, 1.004, 192.0, 0.0, 0.0, 0.0, 0.0, 0.0, 0.0, 0.0, 0.0, 0.0, 1.694595525529031E9, 0.0, 2023-09-13 10:58:45.529
63.0, -161.7372228786019, 187500.0, 187500.0, 187500.0, 187500.0, 187500.0, 187500.0, 187500.0, 0.03, -0.012, 1.004, 192.0, 0.0, 0.0, 0.0, 0.0, 0.0, 0.0, 0.0, 0.0, 0.0, 1.6945955255293E9, 0.0, 2023-09-13 10:58:45.529
64.0, -129.32719341840667, 187500.0, 187500.0, 187500.0, 187500.0, 187500.0, 187500.0, 187500.0, 0.03, -0.012, 1.004, 192.0, 0.0, 0.0, 0.0, 0.0, 0.0, 0.0, 0.0, 0.0, 0.0, 1.6945955255293396E9, 0.0, 2023-09-13 10:58:45.529
65.0, 9.477139649050194, 187500.0, 187500.0, 187500.0, 187500.0, 187500.0, 187500.0, 187500.0, 0.03, -0.012, 1.004, 192.0, 0.0, 0.0, 0.0, 0.0, 0.0, 0.0, 0.0, 0.0, 0.0, 1.694595525529385E9, 0.0, 2023-09-13 10:58:45.529
66.0, 42.62477667627057, 187500.0, 187500.0, 187500.0, 187500.0, 187500.0, 187500.0, 187500.0, 0.03, -0.012, 1.004, 192.0, 0.0, 0.0, 0.0, 0.0, 0.0, 0.0, 0.0, 0.0, 0.0, 1.6945955255294256E9, 0.0, 2023-09-13 10:58:45.529
67.0, 47.430401734161585, 187500.0, 187500.0, 187500.0, 187500.0, 187500.0, 187500.0, 187500.0, 0.028, -0.014, 1.0, 192.0, 0.0, 224.0, 255.0, 144.0, 31.0, 64.0, 0.0, 0.0, 0.0, 1.6945955255294669E9, 0.0, 2023-09-13 10:58:45.529
68.0, 13.500453651005467, 187500.0, 187500.0, 187500.0, 187500.0, 187500.0, 187500.0, 187500.0, 0.028, -0.014, 1.0, 192.0, 0.0, 0.0, 0.0, 0.0, 0.0, 0.0, 0.0, 0.0, 0.0, 1.694595525529513E9, 0.0, 2023-09-13 10:58:45.529
69.0, -132.3223271754178, 187500.0, 187500.0, 187500.0, 187500.0, 187500.0, 187500.0, 187500.0, 0.028, -0.014, 1.0, 192.0, 0.0, 0.0, 0.0, 0.0, 0.0, 0.0, 0.0, 0.0, 0.0, 1.6945955255295537E9, 0.0, 2023-09-13 10:58:45.529
70.0, -170.96849333864373, 187500.0, 187500.0, 187500.0, 187500.0, 187500.0, 187500.0, 187500.0, 0.028, -0.014, 1.0, 192.0, 0.0, 0.0, 0.0, 0.0, 0.0, 0.0, 0.0, 0.0, 0.0, 1.694595525529594E9, 0.0, 2023-09-13 10:58:45.529
71.0, -171.1696590387415, 187500.0, 187500.0, 187500.0, 187500.0, 187500.0, 187500.0, 187500.0, 0.028, -0.014, 1.0, 192.0, 0.0, 0.0, 0.0, 0.0, 0.0, 0.0, 0.0, 0.0, 0.0, 1.6945955255296345E9, 0.0, 2023-09-13 10:58:45.529
72.0, -130.51183587453795, 187500.0, 187500.0, 187500.0, 187500.0, 187500.0, 187500.0, 187500.0, 0.028, -0.014, 1.0, 192.0, 0.0, 0.0, 0.0, 0.0, 0.0, 0.0, 0.0, 0.0, 0.0, 1.6945955255296755E9, 0.0, 2023-09-13 10:58:45.529
73.0, 16.875567063756833, 187500.0, 187500.0, 187500.0, 187500.0, 187500.0, 187500.0, 187500.0, 0.028, -0.014, 1.0, 192.0, 0.0, 0.0, 0.0, 0.0, 0.0, 0.0, 0.0, 0.0, 0.0, 1.694595525529715E9, 0.0, 2023-09-13 10:58:45.529
74.0, 47.40804998970628, 187500.0, 187500.0, 187500.0, 187500.0, 187500.0, 187500.0, 187500.0, 0.028, -0.014, 1.0, 192.0, 0.0, 0.0, 0.0, 0.0, 0.0, 0.0, 0.0, 0.0, 0.0, 1.6945955255297532E9, 0.0, 2023-09-13 10:58:45.529
75.0, 41.954224342611354, 187500.0, 187500.0, 187500.0, 187500.0, 187500.0, 187500.0, 187500.0, 0.028, -0.014, 1.0, 192.0, 0.0, 0.0, 0.0, 0.0, 0.0, 0.0, 0.0, 0.0, 0.0, 1.6945955255297923E9, 0.0, 2023-09-13 10:58:45.529
76.0, 4.447997146606106, 187500.0, 187500.0, 187500.0, 187500.0, 187500.0, 187500.0, 187500.0, 0.028, -0.014, 1.0, 192.0, 0.0, 0.0, 0.0, 0.0, 0.0, 0.0, 0.0, 0.0, 0.0, 1.6945955255298345E9, 0.0, 2023-09-13 10:58:45.529
77.0, -133.9316527761999, 187500.0, 187500.0, 187500.0, 187500.0, 187500.0, 187500.0, 187500.0, 0.028, -0.014, 1.002, 192.0, 0.0, 224.0, 255.0, 144.0, 31.0, 80.0, 0.0, 0.0, 0.0, 1.6945955255298765E9, 0.0, 2023-09-13 10:58:45.529
78.0, -162.87716184582257, 187500.0, 187500.0, 187500.0, 187500.0, 187500.0, 187500.0, 187500.0, 0.028, -0.014, 1.002, 192.0, 0.0, 0.0, 0.0, 0.0, 0.0, 0.0, 0.0, 0.0, 0.0, 1.6945955255300796E9, 0.0, 2023-09-13 10:58:45.530
79.0, -163.43595545720524, 187500.0, 187500.0, 187500.0, 187500.0, 187500.0, 187500.0, 187500.0, 0.028, -0.014, 1.002, 192.0, 0.0, 0.0, 0.0, 0.0, 0.0, 0.0, 0.0, 0.0, 0.0, 1.694595525530124E9, 0.0, 2023-09-13 10:58:45.530
80.0, -132.05410624195412, 187500.0, 187500.0, 187500.0, 187500.0, 187500.0, 187500.0, 187500.0, 0.028, -0.014, 1.002, 192.0, 0.0, 0.0, 0.0, 0.0, 0.0, 0.0, 0.0, 0.0, 0.0, 1.6945955255301664E9, 0.0, 2023-09-13 10:58:45.530
81.0, 7.9125175371787, 187500.0, 187500.0, 187500.0, 187500.0, 187500.0, 187500.0, 187500.0, 0.028, -0.014, 1.002, 192.0, 0.0, 0.0, 0.0, 0.0, 0.0, 0.0, 0.0, 0.0, 0.0, 1.6945955255302095E9, 0.0, 2023-09-13 10:58:45.530
82.0, 47.11747731178729, 187500.0, 187500.0, 187500.0, 187500.0, 187500.0, 187500.0, 187500.0, 0.028, -0.014, 1.002, 192.0, 0.0, 0.0, 0.0, 0.0, 0.0, 0.0, 0.0, 0.0, 0.0, 1.6945955255302508E9, 0.0, 2023-09-13 10:58:45.530
83.0, 50.6267011912705, 187500.0, 187500.0, 187500.0, 187500.0, 187500.0, 187500.0, 187500.0, 0.028, -0.014, 1.002, 192.0, 0.0, 0.0, 0.0, 0.0, 0.0, 0.0, 0.0, 0.0, 0.0, 1.694595525530293E9, 0.0, 2023-09-13 10:58:45.530
84.0, 10.460616405083705, 187500.0, 187500.0, 187500.0, 187500.0, 187500.0, 187500.0, 187500.0, 0.028, -0.014, 1.002, 192.0, 0.0, 0.0, 0.0, 0.0, 0.0, 0.0, 0.0, 0.0, 0.0, 1.6945955255303326E9, 0.0, 2023-09-13 10:58:45.530
85.0, -137.3067661889513, 187500.0, 187500.0, 187500.0, 187500.0, 187500.0, 187500.0, 187500.0, 0.028, -0.014, 1.002, 192.0, 0.0, 0.0, 0.0, 0.0, 0.0, 0.0, 0.0, 0.0, 0.0, 1.6945955255303717E9, 0.0, 2023-09-13 10:58:45.530
86.0, -171.43787997220517, 187500.0, 187500.0, 187500.0, 187500.0, 187500.0, 187500.0, 187500.0, 0.028, -0.014, 1.002, 192.0, 0.0, 0.0, 0.0, 0.0, 0.0, 0.0, 0.0, 0.0, 0.0, 1.6945955255304124E9, 0.0, 2023-09-13 10:58:45.530
87.0, -167.1016415478756, 187500.0, 187500.0, 187500.0, 187500.0, 187500.0, 187500.0, 187500.0, 0.03, -0.01, 1.004, 192.0, 0.0, 240.0, 255.0, 176.0, 31.0, 96.0, 0.0, 0.0, 0.0, 1.6945955255304585E9, 0.0, 2023-09-13 10:58:45.530
88.0, -126.04148698347653, 187500.0, 187500.0, 187500.0, 187500.0, 187500.0, 187500.0, 187500.0, 0.03, -0.01, 1.004, 192.0, 0.0, 0.0, 0.0, 0.0, 0.0, 0.0, 0.0, 0.0, 0.0, 1.6945955255305052E9, 0.0, 2023-09-13 10:58:45.530
89.0, 13.656915862192616, 187500.0, 187500.0, 187500.0, 187500.0, 187500.0, 187500.0, 187500.0, 0.03, -0.01, 1.004, 192.0, 0.0, 0.0, 0.0, 0.0, 0.0, 0.0, 0.0, 0.0, 0.0, 1.694595525530546E9, 0.0, 2023-09-13 10:58:45.530
90.0, 42.870645865278945, 187500.0, 187500.0, 187500.0, 187500.0, 187500.0, 187500.0, 187500.0, 0.03, -0.01, 1.004, 192.0, 0.0, 0.0, 0.0, 0.0, 0.0, 0.0, 0.0, 0.0, 0.0, 1.694595525530588E9, 0.0, 2023-09-13 10:58:45.530
91.0, 42.11068655379851, 187500.0, 187500.0, 187500.0, 187500.0, 187500.0, 187500.0, 187500.0, 0.03, -0.01, 1.004, 192.0, 0.0, 0.0, 0.0, 0.0, 0.0, 0.0, 0.0, 0.0, 0.0, 1.6945955255306277E9, 0.0, 2023-09-13 10:58:45.530
92.0, 8.337200681829534, 187500.0, 187500.0, 187500.0, 187500.0, 187500.0, 187500.0, 187500.0, 0.03, -0.01, 1.004, 192.0, 0.0, 0.0, 0.0, 0.0, 0.0, 0.0, 0.0, 0.0, 0.0, 1.6945955255306687E9, 0.0, 2023-09-13 10:58:45.530
93.0, -128.99191725157706, 187500.0, 187500.0, 187500.0, 187500.0, 187500.0, 187500.0, 187500.0, 0.03, -0.01, 1.004, 192.0, 0.0, 0.0, 0.0, 0.0, 0.0, 0.0, 0.0, 0.0, 0.0, 1.6945955255307095E9, 0.0, 2023-09-13 10:58:45.530
94.0, -165.1570397802639, 187500.0, 187500.0, 187500.0, 187500.0, 187500.0, 187500.0, 187500.0, 0.03, -0.01, 1.004, 192.0, 0.0, 0.0, 0.0, 0.0, 0.0, 0.0, 0.0, 0.0, 0.0, 1.6945955255309172E9, 0.0, 2023-09-13 10:58:45.530
95.0, -170.29794100498452, 187500.0, 187500.0, 187500.0, 187500.0, 187500.0, 187500.0, 187500.0, 0.03, -0.01, 1.004, 192.0, 0.0, 0.0, 0.0, 0.0, 0.0, 0.0, 0.0, 0.0, 0.0, 1.69459552553096E9, 0.0, 2023-09-13 10:58:45.530
96.0, -135.04923999896528, 187500.0, 187500.0, 187500.0, 187500.0, 187500.0, 187500.0, 187500.0, 0.03, -0.01, 1.004, 192.0, 0.0, 0.0, 0.0, 0.0, 0.0, 0.0, 0.0, 0.0, 0.0, 1.6945955255310037E9, 0.0, 2023-09-13 10:58:45.531
97.0, 12.539328639427263, 187500.0, 187500.0, 187500.0, 187500.0, 187500.0, 187500.0, 187500.0, 0.03, -0.008, 1.002, 192.0, 0.0, 240.0, 255.0, 192.0, 31.0, 80.0, 0.0, 0.0, 0.0, 1.694595525531043E9, 0.0, 2023-09-13 10:58:45.531
98.0, 51.74428841403585, 187500.0, 187500.0, 187500.0, 187500.0, 187500.0, 187500.0, 187500.0, 0.03, -0.008, 1.002, 192.0, 0.0, 0.0, 0.0, 0.0, 0.0, 0.0, 0.0, 0.0, 0.0, 1.6945955255310855E9, 0.0, 2023-09-13 10:58:45.531
99.0, 48.57034070138225, 187500.0, 187500.0, 187500.0, 187500.0, 187500.0, 187500.0, 187500.0, 0.03, -0.008, 1.002, 192.0, 0.0, 0.0, 0.0, 0.0, 0.0, 0.0, 0.0, 0.0, 0.0, 1.694595525531135E9, 0.0, 2023-09-13 10:58:45.531
100.0, 3.598630857304437, 187500.0, 187500.0, 187500.0, 187500.0, 187500.0, 187500.0, 187500.0, 0.03, -0.008, 1.002, 192.0, 0.0, 0.0, 0.0, 0.0, 0.0, 0.0, 0.0, 0.0, 0.0, 1.6945955255311756E9, 0.0, 2023-09-13 10:58:45.531
101.0, -137.50793188904905, 187500.0, 187500.0, 187500.0, 187500.0, 187500.0, 187500.0, 187500.0, 0.03, -0.008, 1.002, 192.0, 0.0, 0.0, 0.0, 0.0, 0.0, 0.0, 0.0, 0.0, 0.0, 1.69459552553122E9, 0.0, 2023-09-13 10:58:45.531
102.0, -166.27462700302925, 187500.0, 187500.0, 187500.0, 187500.0, 187500.0, 187500.0, 187500.0, 0.03, -0.008, 1.002, 192.0, 0.0, 0.0, 0.0, 0.0, 0.0, 0.0, 0.0, 0.0, 0.0, 1.6945955255312655E9, 0.0, 2023-09-13 10:58:45.531
103.0, -162.51953393453766, 187500.0, 187500.0, 187500.0, 187500.0, 187500.0, 187500.0, 187500.0, 0.03, -0.008, 1.002, 192.0, 0.0, 0.0, 0.0, 0.0, 0.0, 0.0, 0.0, 0.0, 0.0, 1.6945955255313158E9, 0.0, 2023-09-13 10:58:45.531
104.0, -128.4554753846497, 187500.0, 187500.0, 187500.0, 187500.0, 187500.0, 187500.0, 187500.0, 0.03, -0.008, 1.002, 192.0, 0.0, 0.0, 0.0, 0.0, 0.0, 0.0, 0.0, 0.0, 0.0, 1.694595525531364E9, 0.0, 2023-09-13 10:58:45.531
105.0, 7.510186136983173, 187500.0, 187500.0, 187500.0, 187500.0, 187500.0, 187500.0, 187500.0, 0.03, -0.008, 1.002, 192.0, 0.0, 0.0, 0.0, 0.0, 0.0, 0.0, 0.0, 0.0, 0.0, 1.6945955255314105E9, 0.0, 2023-09-13 10:58:45.531
106.0, 42.49066620953872, 187500.0, 187500.0, 187500.0, 187500.0, 187500.0, 187500.0, 187500.0, 0.03, -0.008, 1.002, 192.0, 0.0, 0.0, 0.0, 0.0, 0.0, 0.0, 0.0, 0.0, 0.0, 1.694595525531454E9, 0.0, 2023-09-13 10:58:45.531
107.0, 47.296291267429744, 187500.0, 187500.0, 187500.0, 187500.0, 187500.0, 187500.0, 187500.0, 0.026000000000000002, -0.014, 1.0, 192.0, 0.0, 208.0, 255.0, 144.0, 31.0, 64.0, 0.0, 0.0, 0.0, 1.6945955255315025E9, 0.0, 2023-09-13 10:58:45.531
108.0, 13.634564117737309, 187500.0, 187500.0, 187500.0, 187500.0, 187500.0, 187500.0, 187500.0, 0.026000000000000002, -0.014, 1.0, 192.0, 0.0, 0.0, 0.0, 0.0, 0.0, 0.0, 0.0, 0.0, 0.0, 1.6945955255315845E9, 0.0, 2023-09-13 10:58:45.531
109.0, -132.9258242757111, 187500.0, 187500.0, 187500.0, 187500.0, 187500.0, 187500.0, 187500.0, 0.026000000000000002, -0.014, 1.0, 192.0, 0.0, 0.0, 0.0, 0.0, 0.0, 0.0, 0.0, 0.0, 0.0, 1.6945955255317824E9, 0.0, 2023-09-13 10:58:45.531
110.0, -169.42622297122753, 187500.0, 187500.0, 187500.0, 187500.0, 187500.0, 187500.0, 187500.0, 0.026000000000000002, -0.014, 1.0, 192.0, 0.0, 0.0, 0.0, 0.0, 0.0, 0.0, 0.0, 0.0, 0.0, 1.6945955255318332E9, 0.0, 2023-09-13 10:58:45.531
111.0, -170.63321717181412, 187500.0, 187500.0, 187500.0, 187500.0, 187500.0, 187500.0, 187500.0, 0.026000000000000002, -0.014, 1.0, 192.0, 0.0, 0.0, 0.0, 0.0, 0.0, 0.0, 0.0, 0.0, 0.0, 1.6945955255318732E9, 0.0, 2023-09-13 10:58:45.531
112.0, -129.90833877424464, 187500.0, 187500.0, 187500.0, 187500.0, 187500.0, 187500.0, 187500.0, 0.026000000000000002, -0.014, 1.0, 192.0, 0.0, 0.0, 0.0, 0.0, 0.0, 0.0, 0.0, 0.0, 0.0, 1.6945955255319123E9, 0.0, 2023-09-13 10:58:45.531
113.0, 14.99802052951104, 187500.0, 187500.0, 187500.0, 187500.0, 187500.0, 187500.0, 187500.0, 0.026000000000000002, -0.014, 1.0, 192.0, 0.0, 0.0, 0.0, 0.0, 0.0, 0.0, 0.0, 0.0, 0.0, 1.694595525531952E9, 0.0, 2023-09-13 10:58:45.531
114.0, 48.25741627900795, 187500.0, 187500.0, 187500.0, 187500.0, 187500.0, 187500.0, 187500.0, 0.026000000000000002, -0.014, 1.0, 192.0, 0.0, 0.0, 0.0, 0.0, 0.0, 0.0, 0.0, 0.0, 0.0, 1.6945955255320008E9, 0.0, 2023-09-13 10:58:45.532
115.0, 43.3623842432957, 187500.0, 187500.0, 187500.0, 187500.0, 187500.0, 187500.0, 187500.0, 0.026000000000000002, -0.014, 1.0, 192.0, 0.0, 0.0, 0.0, 0.0, 0.0, 0.0, 0.0, 0.0, 0.0, 1.694595525532044E9, 0.0, 2023-09-13 10:58:45.532
116.0, 4.425645402150798, 187500.0, 187500.0, 187500.0, 187500.0, 187500.0, 187500.0, 187500.0, 0.026000000000000002, -0.014, 1.0, 192.0, 0.0, 0.0, 0.0, 0.0, 0.0, 0.0, 0.0, 0.0, 0.0, 1.694595525532088E9, 0.0, 2023-09-13 10:58:45.532
117.0, -131.6294230973033, 187500.0, 187500.0, 187500.0, 187500.0, 187500.0, 187500.0, 187500.0, 0.03, -0.014, 1.002, 192.0, 0.0, 240.0, 255.0, 144.0, 31.0, 80.0, 0.0, 0.0, 0.0, 1.6945955255321336E9, 0.0, 2023-09-13 10:58:45.532
118.0, -161.93838857869966, 187500.0, 187500.0, 187500.0, 187500.0, 187500.0, 187500.0, 187500.0, 0.03, -0.014, 1.002, 192.0, 0.0, 0.0, 0.0, 0.0, 0.0, 0.0, 0.0, 0.0, 0.0, 1.694595525532182E9, 0.0, 2023-09-13 10:58:45.532
119.0, -165.31350199145103, 187500.0, 187500.0, 187500.0, 187500.0, 187500.0, 187500.0, 187500.0, 0.03, -0.014, 1.002, 192.0, 0.0, 0.0, 0.0, 0.0, 0.0, 0.0, 0.0, 0.0, 0.0, 1.694595525532228E9, 0.0, 2023-09-13 10:58:45.532
120.0, -134.37868766530607, 187500.0, 187500.0, 187500.0, 187500.0, 187500.0, 187500.0, 187500.0, 0.03, -0.014, 1.002, 192.0, 0.0, 0.0, 0.0, 0.0, 0.0, 0.0, 0.0, 0.0, 0.0, 1.6945955255322735E9, 0.0, 2023-09-13 10:58:45.532
121.0, 7.823110559357472, 187500.0, 187500.0, 187500.0, 187500.0, 187500.0, 187500.0, 187500.0, 0.03, -0.014, 1.002, 192.0, 0.0, 0.0, 0.0, 0.0, 0.0, 0.0, 0.0, 0.0, 0.0, 1.6945955260046084E9, 0.0, 2023-09-13 10:58:46.004
122.0, 47.25158777851913, 187500.0, 187500.0, 187500.0, 187500.0, 187500.0, 187500.0, 187500.0, 0.03, -0.014, 1.002, 192.0, 0.0, 0.0, 0.0, 0.0, 0.0, 0.0, 0.0, 0.0, 0.0, 1.6945955260047183E9, 0.0, 2023-09-13 10:58:46.004
123.0, 51.386660502750935, 187500.0, 187500.0, 187500.0, 187500.0, 187500.0, 187500.0, 187500.0, 0.03, -0.014, 1.002, 192.0, 0.0, 0.0, 0.0, 0.0, 0.0, 0.0, 0.0, 0.0, 0.0, 1.6945955260048041E9, 0.0, 2023-09-13 10:58:46.004
124.0, 10.34885768280717, 187500.0, 187500.0, 187500.0, 187500.0, 187500.0, 187500.0, 187500.0, 0.03, -0.014, 1.002, 192.0, 0.0, 0.0, 0.0, 0.0, 0.0, 0.0, 0.0, 0.0, 0.0, 1.6945955260049806E9, 0.0, 2023-09-13 10:58:46.004
125.0, -137.3291179334066, 187500.0, 187500.0, 187500.0, 187500.0, 187500.0, 187500.0, 187500.0, 0.03, -0.014, 1.002, 192.0, 0.0, 0.0, 0.0, 0.0, 0.0, 0.0, 0.0, 0.0, 0.0, 1.694595526005034E9, 0.0, 2023-09-13 10:58:46.005
126.0, -170.81203112745658, 187500.0, 187500.0, 187500.0, 187500.0, 187500.0, 187500.0, 187500.0, 0.03, -0.014, 1.002, 192.0, 0.0, 0.0, 0.0, 0.0, 0.0, 0.0, 0.0, 0.0, 0.0, 1.6945955260050848E9, 0.0, 2023-09-13 10:58:46.005
127.0, -165.42526071372757, 187500.0, 187500.0, 187500.0, 187500.0, 187500.0, 187500.0, 187500.0, 0.032, -0.012, 1.0, 192.0, 1.0, 0.0, 255.0, 160.0, 31.0, 64.0, 0.0, 0.0, 0.0, 1.6945955260051365E9, 0.0, 2023-09-13 10:58:46.005
128.0, -125.46034162763854, 187500.0, 187500.0, 187500.0, 187500.0, 187500.0, 187500.0, 187500.0, 0.032, -0.012, 1.0, 192.0, 0.0, 0.0, 0.0, 0.0, 0.0, 0.0, 0.0, 0.0, 0.0, 1.6945955260051832E9, 0.0, 2023-09-13 10:58:46.005
129.0, 14.282764706941213, 187500.0, 187500.0, 187500.0, 187500.0, 187500.0, 187500.0, 187500.0, 0.032, -0.012, 1.0, 192.0, 0.0, 0.0, 0.0, 0.0, 0.0, 0.0, 0.0, 0.0, 0.0, 1.6945955260052247E9, 0.0, 2023-09-13 10:58:46.005
130.0, 42.870645865278945, 187500.0, 187500.0, 187500.0, 187500.0, 187500.0, 187500.0, 187500.0, 0.032, -0.012, 1.0, 192.0, 0.0, 0.0, 0.0, 0.0, 0.0, 0.0, 0.0, 0.0, 0.0, 1.694595526005266E9, 0.0, 2023-09-13 10:58:46.005
131.0, 44.23410227705268, 187500.0, 187500.0, 187500.0, 187500.0, 187500.0, 187500.0, 187500.0, 0.032, -0.012, 1.0, 192.0, 0.0, 0.0, 0.0, 0.0, 0.0, 0.0, 0.0, 0.0, 0.0, 1.6945955260053074E9, 0.0, 2023-09-13 10:58:46.005
132.0, 8.985401271033439, 187500.0, 187500.0, 187500.0, 187500.0, 187500.0, 187500.0, 187500.0, 0.032, -0.012, 1.0, 192.0, 0.0, 0.0, 0.0, 0.0, 0.0, 0.0, 0.0, 0.0, 0.0, 1.69459552600535E9, 0.0, 2023-09-13 10:58:46.005
133.0, -129.88598702978933, 187500.0, 187500.0, 187500.0, 187500.0, 187500.0, 187500.0, 187500.0, 0.032, -0.012, 1.0, 192.0, 0.0, 0.0, 0.0, 0.0, 0.0, 0.0, 0.0, 0.0, 0.0, 1.6945955260053935E9, 0.0, 2023-09-13 10:58:46.005
134.0, -165.44761245818287, 187500.0, 187500.0, 187500.0, 187500.0, 187500.0, 187500.0, 187500.0, 0.032, -0.012, 1.0, 192.0, 0.0, 0.0, 0.0, 0.0, 0.0, 0.0, 0.0, 0.0, 0.0, 1.694595526005433E9, 0.0, 2023-09-13 10:58:46.005
135.0, -171.1920107831968, 187500.0, 187500.0, 187500.0, 187500.0, 187500.0, 187500.0, 187500.0, 0.032, -0.012, 1.0, 192.0, 0.0, 0.0, 0.0, 0.0, 0.0, 0.0, 0.0, 0.0, 0.0, 1.6945955260054753E9, 0.0, 2023-09-13 10:58:46.005
136.0, -133.9093010317446, 187500.0, 187500.0, 187500.0, 187500.0, 187500.0, 187500.0, 187500.0, 0.032, -0.012, 1.0, 192.0, 0.0, 0.0, 0.0, 0.0, 0.0, 0.0, 0.0, 0.0, 0.0, 1.6945955260055175E9, 0.0, 2023-09-13 10:58:46.005
137.0, 12.829901317346254, 187500.0, 187500.0, 187500.0, 187500.0, 187500.0, 187500.0, 187500.0, 0.032, -0.01, 1.0, 192.0, 1.0, 0.0, 255.0, 176.0, 31.0, 64.0, 0.0, 0.0, 0.0, 1.6945955260055592E9, 0.0, 2023-09-13 10:58:46.005
138.0, 51.76664015849116, 187500.0, 187500.0, 187500.0, 187500.0, 187500.0, 187500.0, 187500.0, 0.032, -0.01, 1.0, 192.0, 0.0, 0.0, 0.0, 0.0, 0.0, 0.0, 0.0, 0.0, 0.0, 1.6945955260056021E9, 0.0, 2023-09-13 10:58:46.005
139.0, 48.01154708999957, 187500.0, 187500.0, 187500.0, 187500.0, 187500.0, 187500.0, 187500.0, 0.032, -0.01, 1.0, 192.0, 0.0, 0.0, 0.0, 0.0, 0.0, 0.0, 0.0, 0.0, 0.0, 1.694595526005641E9, 0.0, 2023-09-13 10:58:46.005
140.0, 4.671514591159176, 187500.0, 187500.0, 187500.0, 187500.0, 187500.0, 187500.0, 187500.0, 0.032, -0.01, 1.0, 192.0, 0.0, 0.0, 0.0, 0.0, 0.0, 0.0, 0.0, 0.0, 0.0, 1.6945955260057547E9, 0.0, 2023-09-13 10:58:46.005
141.0, -138.0443737559764, 187500.0, 187500.0, 187500.0, 187500.0, 187500.0, 187500.0, 187500.0, 0.032, -0.01, 1.0, 192.0, 0.0, 0.0, 0.0, 0.0, 0.0, 0.0, 0.0, 0.0, 0.0, 1.694595526005798E9, 0.0, 2023-09-13 10:58:46.005
142.0, -166.94517933668845, 187500.0, 187500.0, 187500.0, 187500.0, 187500.0, 187500.0, 187500.0, 0.032, -0.01, 1.0, 192.0, 0.0, 0.0, 0.0, 0.0, 0.0, 0.0, 0.0, 0.0, 0.0, 1.6945955260058403E9, 0.0, 2023-09-13 10:58:46.005
143.0, -162.6089409123589, 187500.0, 187500.0, 187500.0, 187500.0, 187500.0, 187500.0, 187500.0, 0.032, -0.01, 1.0, 192.0, 0.0, 0.0, 0.0, 0.0, 0.0, 0.0, 0.0, 0.0, 0.0, 1.6945955260058873E9, 0.0, 2023-09-13 10:58:46.005
144.0, -127.60610909534802, 187500.0, 187500.0, 187500.0, 187500.0, 187500.0, 187500.0, 187500.0, 0.032, -0.01, 1.0, 192.0, 0.0, 0.0, 0.0, 0.0, 0.0, 0.0, 0.0, 0.0, 0.0, 1.69459552600593E9, 0.0, 2023-09-13 10:58:46.005
145.0, 10.684133849636776, 187500.0, 187500.0, 187500.0, 187500.0, 187500.0, 187500.0, 187500.0, 0.032, -0.01, 1.0, 192.0, 0.0, 0.0, 0.0, 0.0, 0.0, 0.0, 0.0, 0.0, 0.0, 1.6945955260059693E9, 0.0, 2023-09-13 10:58:46.005
146.0, 41.68600340914767, 187500.0, 187500.0, 187500.0, 187500.0, 187500.0, 187500.0, 187500.0, 0.032, -0.012, 1.004, 192.0, 1.0, 0.0, 255.0, 160.0, 31.0, 96.0, 0.0, 0.0, 0.0, 1.694595526006009E9, 0.0, 2023-09-13 10:58:46.006
147.0, 46.80455288941299, 187500.0, 187500.0, 187500.0, 187500.0, 187500.0, 187500.0, 187500.0, 0.032, -0.012, 1.004, 192.0, 0.0, 0.0, 0.0, 0.0, 0.0, 0.0, 0.0, 0.0, 0.0, 1.694595526006052E9, 0.0, 2023-09-13 10:58:46.006
148.0, 12.338162939329498, 187500.0, 187500.0, 187500.0, 187500.0, 187500.0, 187500.0, 187500.0, 0.032, -0.012, 1.004, 192.0, 0.0, 0.0, 0.0, 0.0, 0.0, 0.0, 0.0, 0.0, 0.0, 1.6945955260060973E9, 0.0, 2023-09-13 10:58:46.006
149.0, -130.73535331909102, 187500.0, 187500.0, 187500.0, 187500.0, 187500.0, 187500.0, 187500.0, 0.032, -0.012, 1.004, 192.0, 0.0, 0.0, 0.0, 0.0, 0.0, 0.0, 0.0, 0.0, 0.0, 1.6945955260061448E9, 0.0, 2023-09-13 10:58:46.006
150.0, -169.314464248951, 187500.0, 187500.0, 187500.0, 187500.0, 187500.0, 187500.0, 187500.0, 0.032, -0.012, 1.004, 192.0, 0.0, 0.0, 0.0, 0.0, 0.0, 0.0, 0.0, 0.0, 0.0, 1.694595526006192E9, 0.0, 2023-09-13 10:58:46.006
151.0, -171.68374916121354, 187500.0, 187500.0, 187500.0, 187500.0, 187500.0, 187500.0, 187500.0, 0.032, -0.012, 1.004, 192.0, 0.0, 0.0, 0.0, 0.0, 0.0, 0.0, 0.0, 0.0, 0.0, 1.6945955260062392E9, 0.0, 2023-09-13 10:58:46.006
152.0, -130.62359459681448, 187500.0, 187500.0, 187500.0, 187500.0, 187500.0, 187500.0, 187500.0, 0.032, -0.012, 1.004, 192.0, 0.0, 0.0, 0.0, 0.0, 0.0, 0.0, 0.0, 0.0, 0.0, 1.6945955260062864E9, 0.0, 2023-09-13 10:58:46.006
153.0, 16.36147694128477, 187500.0, 187500.0, 187500.0, 187500.0, 187500.0, 187500.0, 187500.0, 0.032, -0.012, 1.004, 192.0, 0.0, 0.0, 0.0, 0.0, 0.0, 0.0, 0.0, 0.0, 0.0, 1.6945955260063343E9, 0.0, 2023-09-13 10:58:46.006
154.0, 48.90561686821185, 187500.0, 187500.0, 187500.0, 187500.0, 187500.0, 187500.0, 187500.0, 0.032, -0.012, 1.004, 192.0, 0.0, 0.0, 0.0, 0.0, 0.0, 0.0, 0.0, 0.0, 0.0, 1.6945955260063815E9, 0.0, 2023-09-13 10:58:46.006
155.0, 44.03293657695491, 187500.0, 187500.0, 187500.0, 187500.0, 187500.0, 187500.0, 187500.0, 0.032, -0.012, 1.004, 192.0, 0.0, 0.0, 0.0, 0.0, 0.0, 0.0, 0.0, 0.0, 0.0, 1.694595526006488E9, 0.0, 2023-09-13 10:58:46.006
156.0, 4.7832733134357115, 187500.0, 187500.0, 187500.0, 187500.0, 187500.0, 187500.0, 187500.0, 0.026000000000000002, -0.018000000000000002, 1.004, 192.0, 0.0, 208.0, 255.0, 112.0, 31.0, 96.0, 0.0, 0.0, 0.0, 1.6945955260065365E9, 0.0, 2023-09-13 10:58:46.006
157.0, -133.5293213760044, 187500.0, 187500.0, 187500.0, 187500.0, 187500.0, 187500.0, 187500.0, 0.026000000000000002, -0.018000000000000002, 1.004, 192.0, 0.0, 0.0, 0.0, 0.0, 0.0, 0.0, 0.0, 0.0, 0.0, 1.6945955260065863E9, 0.0, 2023-09-13 10:58:46.006
158.0, -162.38542346780582, 187500.0, 187500.0, 187500.0, 187500.0, 187500.0, 187500.0, 187500.0, 0.026000000000000002, -0.018000000000000002, 1.004, 192.0, 0.0, 0.0, 0.0, 0.0, 0.0, 0.0, 0.0, 0.0, 0.0, 1.6945955260066333E9, 0.0, 2023-09-13 10:58:46.006
159.0, -164.15121127977505, 187500.0, 187500.0, 187500.0, 187500.0, 187500.0, 187500.0, 187500.0, 0.026000000000000002, -0.018000000000000002, 1.004, 192.0, 0.0, 0.0, 0.0, 0.0, 0.0, 0.0, 0.0, 0.0, 0.0, 1.6945955260066805E9, 0.0, 2023-09-13 10:58:46.006
160.0, -133.95400452065522, 187500.0, 187500.0, 187500.0, 187500.0, 187500.0, 187500.0, 187500.0, 0.026000000000000002, -0.018000000000000002, 1.004, 192.0, 0.0, 0.0, 0.0, 0.0, 0.0, 0.0, 0.0, 0.0, 0.0, 1.694595526006728E9, 0.0, 2023-09-13 10:58:46.006
161.0, 7.957221026089314, 187500.0, 187500.0, 187500.0, 187500.0, 187500.0, 187500.0, 187500.0, 0.026000000000000002, -0.018000000000000002, 1.004, 192.0, 0.0, 0.0, 0.0, 0.0, 0.0, 0.0, 0.0, 0.0, 0.0, 1.6945955260067751E9, 0.0, 2023-09-13 10:58:46.006
162.0, 46.31281451139623, 187500.0, 187500.0, 187500.0, 187500.0, 187500.0, 187500.0, 187500.0, 0.026000000000000002, -0.018000000000000002, 1.004, 192.0, 0.0, 0.0, 0.0, 0.0, 0.0, 0.0, 0.0, 0.0, 0.0, 1.6945955260068216E9, 0.0, 2023-09-13 10:58:46.006
163.0, 49.48676222404983, 187500.0, 187500.0, 187500.0, 187500.0, 187500.0, 187500.0, 187500.0, 0.026000000000000002, -0.018000000000000002, 1.004, 192.0, 0.0, 0.0, 0.0, 0.0, 0.0, 0.0, 0.0, 0.0, 0.0, 1.6945955260068684E9, 0.0, 2023-09-13 10:58:46.006
164.0, 10.930003038645154, 187500.0, 187500.0, 187500.0, 187500.0, 187500.0, 187500.0, 187500.0, 0.026000000000000002, -0.018000000000000002, 1.004, 192.0, 0.0, 0.0, 0.0, 0.0, 0.0, 0.0, 0.0, 0.0, 0.0, 1.694595526006915E9, 0.0, 2023-09-13 10:58:46.006
165.0, -136.61386211083678, 187500.0, 187500.0, 187500.0, 187500.0, 187500.0, 187500.0, 187500.0, 0.026000000000000002, -0.018000000000000002, 1.004, 192.0, 0.0, 0.0, 0.0, 0.0, 0.0, 0.0, 0.0, 0.0, 0.0, 1.6945955260069623E9, 0.0, 2023-09-13 10:58:46.006
166.0, -171.8402113724007, 187500.0, 187500.0, 187500.0, 187500.0, 187500.0, 187500.0, 187500.0, 0.026000000000000002, -0.02, 1.002, 192.0, 0.0, 208.0, 255.0, 96.0, 31.0, 80.0, 0.0, 0.0, 0.0, 1.6945955260070088E9, 0.0, 2023-09-13 10:58:46.007
167.0, -165.78288862501248, 187500.0, 187500.0, 187500.0, 187500.0, 187500.0, 187500.0, 187500.0, 0.026000000000000002, -0.02, 1.002, 192.0, 0.0, 0.0, 0.0, 0.0, 0.0, 0.0, 0.0, 0.0, 0.0, 1.6945955260070605E9, 0.0, 2023-09-13 10:58:46.007
168.0, -125.39328639427262, 187500.0, 187500.0, 187500.0, 187500.0, 187500.0, 187500.0, 187500.0, 0.026000000000000002, -0.02, 1.002, 192.0, 0.0, 0.0, 0.0, 0.0, 0.0, 0.0, 0.0, 0.0, 0.0, 1.6945955260071068E9, 0.0, 2023-09-13 10:58:46.007
169.0, 14.215709473575291, 187500.0, 187500.0, 187500.0, 187500.0, 187500.0, 187500.0, 187500.0, 0.026000000000000002, -0.02, 1.002, 192.0, 0.0, 0.0, 0.0, 0.0, 0.0, 0.0, 0.0, 0.0, 0.0, 1.6945955260071473E9, 0.0, 2023-09-13 10:58:46.007
170.0, 42.78123888745772, 187500.0, 187500.0, 187500.0, 187500.0, 187500.0, 187500.0, 187500.0, 0.026000000000000002, -0.02, 1.002, 192.0, 0.0, 0.0, 0.0, 0.0, 0.0, 0.0, 0.0, 0.0, 0.0, 1.6945955260072455E9, 0.0, 2023-09-13 10:58:46.007
171.0, 42.267148764985656, 187500.0, 187500.0, 187500.0, 187500.0, 187500.0, 187500.0, 187500.0, 0.026000000000000002, -0.02, 1.002, 192.0, 0.0, 0.0, 0.0, 0.0, 0.0, 0.0, 0.0, 0.0, 0.0, 1.6945955260072892E9, 0.0, 2023-09-13 10:58:46.007
172.0, 7.68900009262563, 187500.0, 187500.0, 187500.0, 187500.0, 187500.0, 187500.0, 187500.0, 0.026000000000000002, -0.02, 1.002, 192.0, 0.0, 0.0, 0.0, 0.0, 0.0, 0.0, 0.0, 0.0, 0.0, 1.6945955260073316E9, 0.0, 2023-09-13 10:58:46.007
173.0, -129.66246958523627, 187500.0, 187500.0, 187500.0, 187500.0, 187500.0, 187500.0, 187500.0, 0.026000000000000002, -0.02, 1.002, 192.0, 0.0, 0.0, 0.0, 0.0, 0.0, 0.0, 0.0, 0.0, 0.0, 1.6945955260073752E9, 0.0, 2023-09-13 10:58:46.007
174.0, -164.75470838006837, 187500.0, 187500.0, 187500.0, 187500.0, 187500.0, 187500.0, 187500.0, 0.026000000000000002, -0.02, 1.002, 192.0, 0.0, 0.0, 0.0, 0.0, 0.0, 0.0, 0.0, 0.0, 0.0, 1.6945955260074196E9, 0.0, 2023-09-13 10:58:46.007
175.0, -169.6720921602359, 187500.0, 187500.0, 187500.0, 187500.0, 187500.0, 187500.0, 187500.0, 0.026000000000000002, -0.02, 1.002, 192.0, 0.0, 0.0, 0.0, 0.0, 0.0, 0.0, 0.0, 0.0, 0.0, 1.694595526007462E9, 0.0, 2023-09-13 10:58:46.007
176.0, -135.51862663252672, 187500.0, 187500.0, 187500.0, 187500.0, 187500.0, 187500.0, 187500.0, 0.024, -0.016, 1.002, 192.0, 0.0, 192.0, 255.0, 128.0, 31.0, 80.0, 0.0, 0.0, 0.0, 1.694595526007498E9, 0.0, 2023-09-13 10:58:46.007
177.0, 12.695790850614411, 187500.0, 187500.0, 187500.0, 187500.0, 187500.0, 187500.0, 187500.0, 0.024, -0.016, 1.002, 192.0, 0.0, 0.0, 0.0, 0.0, 0.0, 0.0, 0.0, 0.0, 0.0, 1.694595526007537E9, 0.0, 2023-09-13 10:58:46.007
178.0, 50.649052935725805, 187500.0, 187500.0, 187500.0, 187500.0, 187500.0, 187500.0, 187500.0, 0.024, -0.016, 1.002, 192.0, 0.0, 0.0, 0.0, 0.0, 0.0, 0.0, 0.0, 0.0, 0.0, 1.694595526007578E9, 0.0, 2023-09-13 10:58:46.007
179.0, 49.24089303504146, 187500.0, 187500.0, 187500.0, 187500.0, 187500.0, 187500.0, 187500.0, 0.024, -0.016, 1.002, 192.0, 0.0, 0.0, 0.0, 0.0, 0.0, 0.0, 0.0, 0.0, 0.0, 1.69459552600762E9, 0.0, 2023-09-13 10:58:46.007
180.0, 4.157424468687114, 187500.0, 187500.0, 187500.0, 187500.0, 187500.0, 187500.0, 187500.0, 0.024, -0.016, 1.002, 192.0, 0.0, 0.0, 0.0, 0.0, 0.0, 0.0, 0.0, 0.0, 0.0, 1.6945955260076628E9, 0.0, 2023-09-13 10:58:46.007
181.0, -137.9996702670658, 187500.0, 187500.0, 187500.0, 187500.0, 187500.0, 187500.0, 187500.0, 0.024, -0.016, 1.002, 192.0, 0.0, 0.0, 0.0, 0.0, 0.0, 0.0, 0.0, 0.0, 0.0, 1.6945955260077012E9, 0.0, 2023-09-13 10:58:46.007
182.0, -166.31933049193987, 187500.0, 187500.0, 187500.0, 187500.0, 187500.0, 187500.0, 187500.0, 0.024, -0.016, 1.002, 192.0, 0.0, 0.0, 0.0, 0.0, 0.0, 0.0, 0.0, 0.0, 0.0, 1.6945955260077376E9, 0.0, 2023-09-13 10:58:46.007
183.0, -161.35724322286168, 187500.0, 187500.0, 187500.0, 187500.0, 187500.0, 187500.0, 187500.0, 0.024, -0.016, 1.002, 192.0, 0.0, 0.0, 0.0, 0.0, 0.0, 0.0, 0.0, 0.0, 0.0, 1.6945955260077748E9, 0.0, 2023-09-13 10:58:46.007
184.0, -127.85197828435639, 187500.0, 187500.0, 187500.0, 187500.0, 187500.0, 187500.0, 187500.0, 0.024, -0.016, 1.002, 192.0, 0.0, 0.0, 0.0, 0.0, 0.0, 0.0, 0.0, 0.0, 0.0, 1.6945955260078156E9, 0.0, 2023-09-13 10:58:46.007
185.0, 10.058285004888178, 187500.0, 187500.0, 187500.0, 187500.0, 187500.0, 187500.0, 187500.0, 0.024, -0.016, 1.002, 192.0, 0.0, 0.0, 0.0, 0.0, 0.0, 0.0, 0.0, 0.0, 0.0, 1.694595526007857E9, 0.0, 2023-09-13 10:58:46.007
186.0, 41.59659643132645, 187500.0, 187500.0, 187500.0, 187500.0, 187500.0, 187500.0, 187500.0, 0.02, -0.01, 1.002, 192.0, 0.0, 160.0, 255.0, 176.0, 31.0, 80.0, 0.0, 0.0, 0.0, 1.6945955260079591E9, 0.0, 2023-09-13 10:58:46.007
187.0, 47.69862266762527, 187500.0, 187500.0, 187500.0, 187500.0, 187500.0, 187500.0, 187500.0, 0.02, -0.01, 1.002, 192.0, 0.0, 0.0, 0.0, 0.0, 0.0, 0.0, 0.0, 0.0, 0.0, 1.6945955260080032E9, 0.0, 2023-09-13 10:58:46.008
188.0, 12.829901317346254, 187500.0, 187500.0, 187500.0, 187500.0, 187500.0, 187500.0, 187500.0, 0.02, -0.01, 1.002, 192.0, 0.0, 0.0, 0.0, 0.0, 0.0, 0.0, 0.0, 0.0, 0.0, 1.6945955260080423E9, 0.0, 2023-09-13 10:58:46.008
189.0, -131.91999577522228, 187500.0, 187500.0, 187500.0, 187500.0, 187500.0, 187500.0, 187500.0, 0.02, -0.01, 1.002, 192.0, 0.0, 0.0, 0.0, 0.0, 0.0, 0.0, 0.0, 0.0, 0.0, 1.694595526008093E9, 0.0, 2023-09-13 10:58:46.008
190.0, -168.75567063756833, 187500.0, 187500.0, 187500.0, 187500.0, 187500.0, 187500.0, 187500.0, 0.02, -0.01, 1.002, 192.0, 0.0, 0.0, 0.0, 0.0, 0.0, 0.0, 0.0, 0.0, 0.0, 1.69459552600814E9, 0.0, 2023-09-13 10:58:46.008
191.0, -171.79550788349007, 187500.0, 187500.0, 187500.0, 187500.0, 187500.0, 187500.0, 187500.0, 0.02, -0.01, 1.002, 192.0, 0.0, 0.0, 0.0, 0.0, 0.0, 0.0, 0.0, 0.0, 0.0, 1.6945955260081816E9, 0.0, 2023-09-13 10:58:46.008
192.0, -131.6294230973033, 187500.0, 187500.0, 187500.0, 187500.0, 187500.0, 187500.0, 187500.0, 0.02, -0.01, 1.002, 192.0, 0.0, 0.0, 0.0, 0.0, 0.0, 0.0, 0.0, 0.0, 0.0, 1.6945955260082247E9, 0.0, 2023-09-13 10:58:46.008
193.0, 14.819206573868582, 187500.0, 187500.0, 187500.0, 187500.0, 187500.0, 187500.0, 187500.0, 0.02, -0.01, 1.002, 192.0, 0.0, 0.0, 0.0, 0.0, 0.0, 0.0, 0.0, 0.0, 0.0, 1.6945955260082667E9, 0.0, 2023-09-13 10:58:46.008
194.0, 48.19036104564203, 187500.0, 187500.0, 187500.0, 187500.0, 187500.0, 187500.0, 187500.0, 0.02, -0.01, 1.002, 192.0, 0.0, 0.0, 0.0, 0.0, 0.0, 0.0, 0.0, 0.0, 0.0, 1.69459552600831E9, 0.0, 2023-09-13 10:58:46.008
195.0, 43.474142965572234, 187500.0, 187500.0, 187500.0, 187500.0, 187500.0, 187500.0, 187500.0, 0.02, -0.01, 1.002, 192.0, 0.0, 0.0, 0.0, 0.0, 0.0, 0.0, 0.0, 0.0, 0.0, 1.6945955260083528E9, 0.0, 2023-09-13 10:58:46.008
196.0, 4.805625057891018, 187500.0, 187500.0, 187500.0, 187500.0, 187500.0, 187500.0, 187500.0, 0.022, -0.016, 1.002, 192.0, 0.0, 176.0, 255.0, 128.0, 31.0, 80.0, 0.0, 0.0, 0.0, 1.694595526008396E9, 0.0, 2023-09-13 10:58:46.008
197.0, -131.3388504193843, 187500.0, 187500.0, 187500.0, 187500.0, 187500.0, 187500.0, 187500.0, 0.022, -0.016, 1.002, 192.0, 0.0, 0.0, 0.0, 0.0, 0.0, 0.0, 0.0, 0.0, 0.0, 1.6945955260084412E9, 0.0, 2023-09-13 10:58:46.008
198.0, -163.07832754592033, 187500.0, 187500.0, 187500.0, 187500.0, 187500.0, 187500.0, 187500.0, 0.022, -0.016, 1.002, 192.0, 0.0, 0.0, 0.0, 0.0, 0.0, 0.0, 0.0, 0.0, 0.0, 1.6945955260084834E9, 0.0, 2023-09-13 10:58:46.008
199.0, -166.34168223639517, 187500.0, 187500.0, 187500.0, 187500.0, 187500.0, 187500.0, 187500.0, 0.022, -0.016, 1.002, 192.0, 0.0, 0.0, 0.0, 0.0, 0.0, 0.0, 0.0, 0.0, 0.0, 1.6945955260085266E9, 0.0, 2023-09-13 10:58:46.008
200.0, -132.97052776462172, 187500.0, 187500.0, 187500.0, 187500.0, 187500.0, 187500.0, 187500.0, 0.022, -0.016, 1.002, 192.0, 0.0, 0.0, 0.0, 0.0, 0.0, 0.0, 0.0, 0.0, 0.0, 1.6945955260085711E9, 0.0, 2023-09-13 10:58:46.008
201.0, 7.130206481242953, 187500.0, 187500.0, 187500.0, 187500.0, 187500.0, 187500.0, 187500.0, 0.022, -0.016, 1.002, 192.0, 0.0, 0.0, 0.0, 0.0, 0.0, 0.0, 0.0, 0.0, 0.0, 1.6945955260086691E9, 0.0, 2023-09-13 10:58:46.008
202.0, 47.56451220089343, 187500.0, 187500.0, 187500.0, 187500.0, 187500.0, 187500.0, 187500.0, 0.022, -0.016, 1.002, 192.0, 0.0, 0.0, 0.0, 0.0, 0.0, 0.0, 0.0, 0.0, 0.0, 1.694595526008712E9, 0.0, 2023-09-13 10:58:46.008
203.0, 50.06790757988782, 187500.0, 187500.0, 187500.0, 187500.0, 187500.0, 187500.0, 187500.0, 0.022, -0.016, 1.002, 192.0, 0.0, 0.0, 0.0, 0.0, 0.0, 0.0, 0.0, 0.0, 0.0, 1.6945955260087552E9, 0.0, 2023-09-13 10:58:46.008
204.0, 10.639430360726163, 187500.0, 187500.0, 187500.0, 187500.0, 187500.0, 187500.0, 187500.0, 0.022, -0.016, 1.002, 192.0, 0.0, 0.0, 0.0, 0.0, 0.0, 0.0, 0.0, 0.0, 0.0, 1.694595526008798E9, 0.0, 2023-09-13 10:58:46.008
205.0, -137.95496677815518, 187500.0, 187500.0, 187500.0, 187500.0, 187500.0, 187500.0, 187500.0, 0.022, -0.016, 1.002, 192.0, 0.0, 0.0, 0.0, 0.0, 0.0, 0.0, 0.0, 0.0, 0.0, 1.6945955260088408E9, 0.0, 2023-09-13 10:58:46.008
206.0, -171.37082473883925, 187500.0, 187500.0, 187500.0, 187500.0, 187500.0, 187500.0, 187500.0, 0.026000000000000002, -0.022, 1.002, 192.0, 0.0, 208.0, 255.0, 80.0, 31.0, 80.0, 0.0, 0.0, 0.0, 1.6945955260088847E9, 0.0, 2023-09-13 10:58:46.008
207.0, -168.17452528173033, 187500.0, 187500.0, 187500.0, 187500.0, 187500.0, 187500.0, 187500.0, 0.026000000000000002, -0.022, 1.002, 192.0, 0.0, 0.0, 0.0, 0.0, 0.0, 0.0, 0.0, 0.0, 0.0, 1.6945955260089316E9, 0.0, 2023-09-13 10:58:46.008
208.0, -126.5779288504039, 187500.0, 187500.0, 187500.0, 187500.0, 187500.0, 187500.0, 187500.0, 0.026000000000000002, -0.022, 1.002, 192.0, 0.0, 0.0, 0.0, 0.0, 0.0, 0.0, 0.0, 0.0, 0.0, 1.6945955260089748E9, 0.0, 2023-09-13 10:58:46.008
209.0, 14.796854829413276, 187500.0, 187500.0, 187500.0, 187500.0, 187500.0, 187500.0, 187500.0, 0.026000000000000002, -0.022, 1.002, 192.0, 0.0, 0.0, 0.0, 0.0, 0.0, 0.0, 0.0, 0.0, 0.0, 1.6945955260090175E9, 0.0, 2023-09-13 10:58:46.009
210.0, 43.38473598775101, 187500.0, 187500.0, 187500.0, 187500.0, 187500.0, 187500.0, 187500.0, 0.026000000000000002, -0.022, 1.002, 192.0, 0.0, 0.0, 0.0, 0.0, 0.0, 0.0, 0.0, 0.0, 0.0, 1.6945955260090625E9, 0.0, 2023-09-13 10:58:46.009
211.0, 39.85316036381249, 187500.0, 187500.0, 187500.0, 187500.0, 187500.0, 187500.0, 187500.0, 0.026000000000000002, -0.022, 1.002, 192.0, 0.0, 0.0, 0.0, 0.0, 0.0, 0.0, 0.0, 0.0, 0.0, 1.6945955260091145E9, 0.0, 2023-09-13 10:58:46.009
212.0, 8.247793704008306, 187500.0, 187500.0, 187500.0, 187500.0, 187500.0, 187500.0, 187500.0, 0.026000000000000002, -0.022, 1.002, 192.0, 0.0, 0.0, 0.0, 0.0, 0.0, 0.0, 0.0, 0.0, 0.0, 1.6945955260091586E9, 0.0, 2023-09-13 10:58:46.009
213.0, -129.7295248186022, 187500.0, 187500.0, 187500.0, 187500.0, 187500.0, 187500.0, 187500.0, 0.026000000000000002, -0.022, 1.002, 192.0, 0.0, 0.0, 0.0, 0.0, 0.0, 0.0, 0.0, 0.0, 0.0, 1.694595526009203E9, 0.0, 2023-09-13 10:58:46.009
214.0, -164.93352233571082, 187500.0, 187500.0, 187500.0, 187500.0, 187500.0, 187500.0, 187500.0, 0.026000000000000002, -0.022, 1.002, 192.0, 0.0, 0.0, 0.0, 0.0, 0.0, 0.0, 0.0, 0.0, 0.0, 1.694595526009245E9, 0.0, 2023-09-13 10:58:46.009
215.0, -170.0073683270655, 187500.0, 187500.0, 187500.0, 187500.0, 187500.0, 187500.0, 187500.0, 0.026000000000000002, -0.022, 1.002, 192.0, 0.0, 0.0, 0.0, 0.0, 0.0, 0.0, 0.0, 0.0, 0.0, 1.6945955260092854E9, 0.0, 2023-09-13 10:58:46.009
216.0, -133.99870800956583, 187500.0, 187500.0, 187500.0, 187500.0, 187500.0, 187500.0, 187500.0, 0.022, -0.022, 1.006, 192.0, 0.0, 176.0, 255.0, 80.0, 31.0, 112.0, 0.0, 0.0, 0.0, 1.6945955260093732E9, 0.0, 2023-09-13 10:58:46.009
217.0, 12.360514683784805, 187500.0, 187500.0, 187500.0, 187500.0, 187500.0, 187500.0, 187500.0, 0.022, -0.022, 1.006, 192.0, 0.0, 0.0, 0.0, 0.0, 0.0, 0.0, 0.0, 0.0, 0.0, 1.694595526009415E9, 0.0, 2023-09-13 10:58:46.009
218.0, 50.09025932434313, 187500.0, 187500.0, 187500.0, 187500.0, 187500.0, 187500.0, 187500.0, 0.022, -0.022, 1.006, 192.0, 0.0, 0.0, 0.0, 0.0, 0.0, 0.0, 0.0, 0.0, 0.0, 1.6945955260094557E9, 0.0, 2023-09-13 10:58:46.009
219.0, 48.45858197910571, 187500.0, 187500.0, 187500.0, 187500.0, 187500.0, 187500.0, 187500.0, 0.022, -0.022, 1.006, 192.0, 0.0, 0.0, 0.0, 0.0, 0.0, 0.0, 0.0, 0.0, 0.0, 1.6945955260094976E9, 0.0, 2023-09-13 10:58:46.009
220.0, 6.0126192584776, 187500.0, 187500.0, 187500.0, 187500.0, 187500.0, 187500.0, 187500.0, 0.022, -0.022, 1.006, 192.0, 0.0, 0.0, 0.0, 0.0, 0.0, 0.0, 0.0, 0.0, 0.0, 1.6945955260095394E9, 0.0, 2023-09-13 10:58:46.009
221.0, -138.71492608963564, 187500.0, 187500.0, 187500.0, 187500.0, 187500.0, 187500.0, 187500.0, 0.022, -0.022, 1.006, 192.0, 0.0, 0.0, 0.0, 0.0, 0.0, 0.0, 0.0, 0.0, 0.0, 1.6945955260095823E9, 0.0, 2023-09-13 10:58:46.009
222.0, -167.21340027015214, 187500.0, 187500.0, 187500.0, 187500.0, 187500.0, 187500.0, 187500.0, 0.022, -0.022, 1.006, 192.0, 0.0, 0.0, 0.0, 0.0, 0.0, 0.0, 0.0, 0.0, 0.0, 1.6945955260096233E9, 0.0, 2023-09-13 10:58:46.009
223.0, -162.43012695671644, 187500.0, 187500.0, 187500.0, 187500.0, 187500.0, 187500.0, 187500.0, 0.022, -0.022, 1.006, 192.0, 0.0, 0.0, 0.0, 0.0, 0.0, 0.0, 0.0, 0.0, 0.0, 1.6945955260096643E9, 0.0, 2023-09-13 10:58:46.009
224.0, -130.02009749652117, 187500.0, 187500.0, 187500.0, 187500.0, 187500.0, 187500.0, 187500.0, 0.022, -0.022, 1.006, 192.0, 0.0, 0.0, 0.0, 0.0, 0.0, 0.0, 0.0, 0.0, 0.0, 1.6945955260097127E9, 0.0, 2023-09-13 10:58:46.009
225.0, 8.113683237276463, 187500.0, 187500.0, 187500.0, 187500.0, 187500.0, 187500.0, 187500.0, 0.022, -0.022, 1.006, 192.0, 0.0, 0.0, 0.0, 0.0, 0.0, 0.0, 0.0, 0.0, 0.0, 1.6945955260097592E9, 0.0, 2023-09-13 10:58:46.009
226.0, 43.38473598775101, 187500.0, 187500.0, 187500.0, 187500.0, 187500.0, 187500.0, 187500.0, 0.022, -0.014, 1.008, 192.0, 0.0, 176.0, 255.0, 144.0, 31.0, 128.0, 0.0, 0.0, 0.0, 1.6945955260098016E9, 0.0, 2023-09-13 10:58:46.009
227.0, 46.089297066843166, 187500.0, 187500.0, 187500.0, 187500.0, 187500.0, 187500.0, 187500.0, 0.022, -0.014, 1.008, 192.0, 0.0, 0.0, 0.0, 0.0, 0.0, 0.0, 0.0, 0.0, 0.0, 1.6945955260098464E9, 0.0, 2023-09-13 10:58:46.009
228.0, 13.098122250809938, 187500.0, 187500.0, 187500.0, 187500.0, 187500.0, 187500.0, 187500.0, 0.022, -0.014, 1.008, 192.0, 0.0, 0.0, 0.0, 0.0, 0.0, 0.0, 0.0, 0.0, 0.0, 1.6945955260098906E9, 0.0, 2023-09-13 10:58:46.009
229.0, -132.72465857561335, 187500.0, 187500.0, 187500.0, 187500.0, 187500.0, 187500.0, 187500.0, 0.022, -0.014, 1.008, 192.0, 0.0, 0.0, 0.0, 0.0, 0.0, 0.0, 0.0, 0.0, 0.0, 1.6945955260099328E9, 0.0, 2023-09-13 10:58:46.009
230.0, -169.06859505994262, 187500.0, 187500.0, 187500.0, 187500.0, 187500.0, 187500.0, 187500.0, 0.022, -0.014, 1.008, 192.0, 0.0, 0.0, 0.0, 0.0, 0.0, 0.0, 0.0, 0.0, 0.0, 1.6945955260099752E9, 0.0, 2023-09-13 10:58:46.009
231.0, -170.5214584495376, 187500.0, 187500.0, 187500.0, 187500.0, 187500.0, 187500.0, 187500.0, 0.022, -0.014, 1.008, 192.0, 0.0, 0.0, 0.0, 0.0, 0.0, 0.0, 0.0, 0.0, 0.0, 1.6945955260100749E9, 0.0, 2023-09-13 10:58:46.010
232.0, -130.6906498301804, 187500.0, 187500.0, 187500.0, 187500.0, 187500.0, 187500.0, 187500.0, 0.022, -0.014, 1.008, 192.0, 0.0, 0.0, 0.0, 0.0, 0.0, 0.0, 0.0, 0.0, 0.0, 1.6945955260101297E9, 0.0, 2023-09-13 10:58:46.010
233.0, 16.42853217465069, 187500.0, 187500.0, 187500.0, 187500.0, 187500.0, 187500.0, 187500.0, 0.022, -0.014, 1.008, 192.0, 0.0, 0.0, 0.0, 0.0, 0.0, 0.0, 0.0, 0.0, 0.0, 1.6945955260101771E9, 0.0, 2023-09-13 10:58:46.010
234.0, 48.7268029125694, 187500.0, 187500.0, 187500.0, 187500.0, 187500.0, 187500.0, 187500.0, 0.022, -0.014, 1.008, 192.0, 0.0, 0.0, 0.0, 0.0, 0.0, 0.0, 0.0, 0.0, 0.0, 1.6945955260102208E9, 0.0, 2023-09-13 10:58:46.010
235.0, 43.20592203210855, 187500.0, 187500.0, 187500.0, 187500.0, 187500.0, 187500.0, 187500.0, 0.022, -0.014, 1.008, 192.0, 0.0, 0.0, 0.0, 0.0, 0.0, 0.0, 0.0, 0.0, 0.0, 1.6945955260102644E9, 0.0, 2023-09-13 10:58:46.010
236.0, 4.112720979776499, 187500.0, 187500.0, 187500.0, 187500.0, 187500.0, 187500.0, 187500.0, 0.028, -0.01, 1.006, 192.0, 0.0, 224.0, 255.0, 176.0, 31.0, 112.0, 0.0, 0.0, 0.0, 1.6945955260103054E9, 0.0, 2023-09-13 10:58:46.010
237.0, -133.43991439818316, 187500.0, 187500.0, 187500.0, 187500.0, 187500.0, 187500.0, 187500.0, 0.028, -0.01, 1.006, 192.0, 0.0, 0.0, 0.0, 0.0, 0.0, 0.0, 0.0, 0.0, 0.0, 1.69459552601035E9, 0.0, 2023-09-13 10:58:46.010
238.0, -163.3241967349287, 187500.0, 187500.0, 187500.0, 187500.0, 187500.0, 187500.0, 187500.0, 0.028, -0.01, 1.006, 192.0, 0.0, 0.0, 0.0, 0.0, 0.0, 0.0, 0.0, 0.0, 0.0, 1.6945955260103931E9, 0.0, 2023-09-13 10:58:46.010
239.0, -165.894647347289, 187500.0, 187500.0, 187500.0, 187500.0, 187500.0, 187500.0, 187500.0, 0.028, -0.01, 1.006, 192.0, 0.0, 0.0, 0.0, 0.0, 0.0, 0.0, 0.0, 0.0, 0.0, 1.6945955260104403E9, 0.0, 2023-09-13 10:58:46.010
240.0, -133.48461788709378, 187500.0, 187500.0, 187500.0, 187500.0, 187500.0, 187500.0, 187500.0, 0.028, -0.01, 1.006, 192.0, 0.0, 0.0, 0.0, 0.0, 0.0, 0.0, 0.0, 0.0, 0.0, 1.6945955260104809E9, 0.0, 2023-09-13 10:58:46.010
241.0, 7.890165792723393, 187500.0, 187500.0, 187500.0, 187500.0, 187500.0, 187500.0, 187500.0, 0.028, -0.01, 1.006, 192.0, 0.0, 0.0, 0.0, 0.0, 0.0, 0.0, 0.0, 0.0, 0.0, 1.6945955264860704E9, 0.0, 2023-09-13 10:58:46.486
242.0, 46.78220114495768, 187500.0, 187500.0, 187500.0, 187500.0, 187500.0, 187500.0, 187500.0, 0.028, -0.01, 1.006, 192.0, 0.0, 0.0, 0.0, 0.0, 0.0, 0.0, 0.0, 0.0, 0.0, 1.6945955264863813E9, 0.0, 2023-09-13 10:58:46.486
243.0, 50.93962561364479, 187500.0, 187500.0, 187500.0, 187500.0, 187500.0, 187500.0, 187500.0, 0.028, -0.01, 1.006, 192.0, 0.0, 0.0, 0.0, 0.0, 0.0, 0.0, 0.0, 0.0, 0.0, 1.6945955264864986E9, 0.0, 2023-09-13 10:58:46.486
244.0, 9.52184313796081, 187500.0, 187500.0, 187500.0, 187500.0, 187500.0, 187500.0, 187500.0, 0.028, -0.01, 1.006, 192.0, 0.0, 0.0, 0.0, 0.0, 0.0, 0.0, 0.0, 0.0, 0.0, 1.694595526486608E9, 0.0, 2023-09-13 10:58:46.486
245.0, -137.0385452554876, 187500.0, 187500.0, 187500.0, 187500.0, 187500.0, 187500.0, 187500.0, 0.028, -0.01, 1.006, 192.0, 0.0, 0.0, 0.0, 0.0, 0.0, 0.0, 0.0, 0.0, 0.0, 1.694595526486697E9, 0.0, 2023-09-13 10:58:46.486
246.0, -170.74497589409066, 187500.0, 187500.0, 187500.0, 187500.0, 187500.0, 187500.0, 187500.0, 0.022, -0.012, 1.004, 192.0, 0.0, 176.0, 255.0, 160.0, 31.0, 96.0, 0.0, 0.0, 0.0, 1.6945955264867754E9, 0.0, 2023-09-13 10:58:46.486
247.0, -166.83342061441192, 187500.0, 187500.0, 187500.0, 187500.0, 187500.0, 187500.0, 187500.0, 0.022, -0.012, 1.004, 192.0, 0.0, 0.0, 0.0, 0.0, 0.0, 0.0, 0.0, 0.0, 0.0, 1.694595526487489E9, 0.0, 2023-09-13 10:58:46.487
248.0, -124.09688521586482, 187500.0, 187500.0, 187500.0, 187500.0, 187500.0, 187500.0, 187500.0, 0.022, -0.012, 1.004, 192.0, 0.0, 0.0, 0.0, 0.0, 0.0, 0.0, 0.0, 0.0, 0.0, 1.6945955264876115E9, 0.0, 2023-09-13 10:58:46.487
249.0, 14.416875173673056, 187500.0, 187500.0, 187500.0, 187500.0, 187500.0, 187500.0, 187500.0, 0.022, -0.012, 1.004, 192.0, 0.0, 0.0, 0.0, 0.0, 0.0, 0.0, 0.0, 0.0, 0.0, 1.694595526487726E9, 0.0, 2023-09-13 10:58:46.487
250.0, 43.27297726547447, 187500.0, 187500.0, 187500.0, 187500.0, 187500.0, 187500.0, 187500.0, 0.022, -0.012, 1.004, 192.0, 0.0, 0.0, 0.0, 0.0, 0.0, 0.0, 0.0, 0.0, 0.0, 1.6945955264878397E9, 0.0, 2023-09-13 10:58:46.487
251.0, 42.22244527607504, 187500.0, 187500.0, 187500.0, 187500.0, 187500.0, 187500.0, 187500.0, 0.022, -0.012, 1.004, 192.0, 0.0, 0.0, 0.0, 0.0, 0.0, 0.0, 0.0, 0.0, 0.0, 1.6945955264879305E9, 0.0, 2023-09-13 10:58:46.487
252.0, 8.895994293212212, 187500.0, 187500.0, 187500.0, 187500.0, 187500.0, 187500.0, 187500.0, 0.022, -0.012, 1.004, 192.0, 0.0, 0.0, 0.0, 0.0, 0.0, 0.0, 0.0, 0.0, 0.0, 1.6945955264880261E9, 0.0, 2023-09-13 10:58:46.488
253.0, -128.2543096845519, 187500.0, 187500.0, 187500.0, 187500.0, 187500.0, 187500.0, 187500.0, 0.022, -0.012, 1.004, 192.0, 0.0, 0.0, 0.0, 0.0, 0.0, 0.0, 0.0, 0.0, 0.0, 1.6945955264881227E9, 0.0, 2023-09-13 10:58:46.488
254.0, -164.5311909355153, 187500.0, 187500.0, 187500.0, 187500.0, 187500.0, 187500.0, 187500.0, 0.022, -0.012, 1.004, 192.0, 0.0, 0.0, 0.0, 0.0, 0.0, 0.0, 0.0, 0.0, 0.0, 1.694595526488199E9, 0.0, 2023-09-13 10:58:46.488
255.0, -169.6273886713253, 187500.0, 187500.0, 187500.0, 187500.0, 187500.0, 187500.0, 187500.0, 0.022, -0.012, 1.004, 192.0, 0.0, 0.0, 0.0, 0.0, 0.0, 0.0, 0.0, 0.0, 0.0, 1.6945955264882576E9, 0.0, 2023-09-13 10:58:46.488
0.0, -134.2222254541189, 187500.0, 187500.0, 187500.0, 187500.0, 187500.0, 187500.0, 187500.0, 0.026000000000000002, -0.01, 1.004, 192.0, 0.0, 208.0, 255.0, 176.0, 31.0, 96.0, 0.0, 0.0, 0.0, 1.6945955264883797E9, 0.0, 2023-09-13 10:58:46.488
1.0, 12.673439106159105, 187500.0, 187500.0, 187500.0, 187500.0, 187500.0, 187500.0, 187500.0, 0.026000000000000002, -0.01, 1.004, 192.0, 0.0, 0.0, 0.0, 0.0, 0.0, 0.0, 0.0, 0.0, 0.0, 1.6945955264884312E9, 0.0, 2023-09-13 10:58:46.488
2.0, 50.17966630216436, 187500.0, 187500.0, 187500.0, 187500.0, 187500.0, 187500.0, 187500.0, 0.026000000000000002, -0.01, 1.004, 192.0, 0.0, 0.0, 0.0, 0.0, 0.0, 0.0, 0.0, 0.0, 0.0, 1.6945955264884777E9, 0.0, 2023-09-13 10:58:46.488
3.0, 48.346823256829175, 187500.0, 187500.0, 187500.0, 187500.0, 187500.0, 187500.0, 187500.0, 0.026000000000000002, -0.01, 1.004, 192.0, 0.0, 0.0, 0.0, 0.0, 0.0, 0.0, 0.0, 0.0, 0.0, 1.6945955264885955E9, 0.0, 2023-09-13 10:58:46.488
4.0, 5.543232624916151, 187500.0, 187500.0, 187500.0, 187500.0, 187500.0, 187500.0, 187500.0, 0.026000000000000002, -0.01, 1.004, 192.0, 0.0, 0.0, 0.0, 0.0, 0.0, 0.0, 0.0, 0.0, 0.0, 1.6945955264887166E9, 0.0, 2023-09-13 10:58:46.488
5.0, -137.84320805587865, 187500.0, 187500.0, 187500.0, 187500.0, 187500.0, 187500.0, 187500.0, 0.026000000000000002, -0.01, 1.004, 192.0, 0.0, 0.0, 0.0, 0.0, 0.0, 0.0, 0.0, 0.0, 0.0, 1.6945955264888537E9, 0.0, 2023-09-13 10:58:46.488
6.0, -167.056938058965, 187500.0, 187500.0, 187500.0, 187500.0, 187500.0, 187500.0, 187500.0, 0.026000000000000002, -0.01, 1.004, 192.0, 0.0, 0.0, 0.0, 0.0, 0.0, 0.0, 0.0, 0.0, 0.0, 1.6945955264893467E9, 0.0, 2023-09-13 10:58:46.489
7.0, -162.0501473009762, 187500.0, 187500.0, 187500.0, 187500.0, 187500.0, 187500.0, 187500.0, 0.026000000000000002, -0.01, 1.004, 192.0, 0.0, 0.0, 0.0, 0.0, 0.0, 0.0, 0.0, 0.0, 0.0, 1.6945955264894114E9, 0.0, 2023-09-13 10:58:46.489
8.0, -128.54488236247093, 187500.0, 187500.0, 187500.0, 187500.0, 187500.0, 187500.0, 187500.0, 0.026000000000000002, -0.01, 1.004, 192.0, 0.0, 0.0, 0.0, 0.0, 0.0, 0.0, 0.0, 0.0, 0.0, 1.6945955264894664E9, 0.0, 2023-09-13 10:58:46.489
9.0, 9.52184313796081, 187500.0, 187500.0, 187500.0, 187500.0, 187500.0, 187500.0, 187500.0, 0.026000000000000002, -0.01, 1.004, 192.0, 0.0, 0.0, 0.0, 0.0, 0.0, 0.0, 0.0, 0.0, 0.0, 1.6945955264895165E9, 0.0, 2023-09-13 10:58:46.489
10.0, 42.49066620953872, 187500.0, 187500.0, 187500.0, 187500.0, 187500.0, 187500.0, 187500.0, 0.022, -0.01, 1.004, 192.0, 0.0, 176.0, 255.0, 176.0, 31.0, 96.0, 0.0, 0.0, 0.0, 1.694595526489571E9, 0.0, 2023-09-13 10:58:46.489
11.0, 46.893959867234216, 187500.0, 187500.0, 187500.0, 187500.0, 187500.0, 187500.0, 187500.0, 0.022, -0.01, 1.004, 192.0, 0.0, 0.0, 0.0, 0.0, 0.0, 0.0, 0.0, 0.0, 0.0, 1.6945955264896324E9, 0.0, 2023-09-13 10:58:46.489
12.0, 11.980535028044585, 187500.0, 187500.0, 187500.0, 187500.0, 187500.0, 187500.0, 187500.0, 0.022, -0.01, 1.004, 192.0, 0.0, 0.0, 0.0, 0.0, 0.0, 0.0, 0.0, 0.0, 0.0, 1.6945955264896843E9, 0.0, 2023-09-13 10:58:46.489
13.0, -130.80240855245694, 187500.0, 187500.0, 187500.0, 187500.0, 187500.0, 187500.0, 187500.0, 0.022, -0.01, 1.004, 192.0, 0.0, 0.0, 0.0, 0.0, 0.0, 0.0, 0.0, 0.0, 0.0, 1.6945955264897356E9, 0.0, 2023-09-13 10:58:46.489
14.0, -167.97335958163256, 187500.0, 187500.0, 187500.0, 187500.0, 187500.0, 187500.0, 187500.0, 0.022, -0.01, 1.004, 192.0, 0.0, 0.0, 0.0, 0.0, 0.0, 0.0, 0.0, 0.0, 0.0, 1.694595526489786E9, 0.0, 2023-09-13 10:58:46.489
15.0, -170.5438101939929, 187500.0, 187500.0, 187500.0, 187500.0, 187500.0, 187500.0, 187500.0, 0.022, -0.01, 1.004, 192.0, 0.0, 0.0, 0.0, 0.0, 0.0, 0.0, 0.0, 0.0, 0.0, 1.6945955264898393E9, 0.0, 2023-09-13 10:58:46.489
16.0, -130.91416727473347, 187500.0, 187500.0, 187500.0, 187500.0, 187500.0, 187500.0, 187500.0, 0.022, -0.01, 1.004, 192.0, 0.0, 0.0, 0.0, 0.0, 0.0, 0.0, 0.0, 0.0, 0.0, 1.6945955264898798E9, 0.0, 2023-09-13 10:58:46.489
17.0, 16.60734613029315, 187500.0, 187500.0, 187500.0, 187500.0, 187500.0, 187500.0, 187500.0, 0.022, -0.01, 1.004, 192.0, 0.0, 0.0, 0.0, 0.0, 0.0, 0.0, 0.0, 0.0, 0.0, 1.6945955264899273E9, 0.0, 2023-09-13 10:58:46.489
18.0, 48.92796861266716, 187500.0, 187500.0, 187500.0, 187500.0, 187500.0, 187500.0, 187500.0, 0.022, -0.01, 1.004, 192.0, 0.0, 0.0, 0.0, 0.0, 0.0, 0.0, 0.0, 0.0, 0.0, 1.6945955264899724E9, 0.0, 2023-09-13 10:58:46.489
19.0, 43.89882611022307, 187500.0, 187500.0, 187500.0, 187500.0, 187500.0, 187500.0, 187500.0, 0.028, -0.01, 1.002, 192.0, 0.0, 224.0, 255.0, 176.0, 31.0, 80.0, 0.0, 0.0, 0.0, 1.694595526490016E9, 0.0, 2023-09-13 10:58:46.490
20.0, 5.118549480265317, 187500.0, 187500.0, 187500.0, 187500.0, 187500.0, 187500.0, 187500.0, 0.028, -0.01, 1.002, 192.0, 0.0, 0.0, 0.0, 0.0, 0.0, 0.0, 0.0, 0.0, 0.0, 1.694595526490061E9, 0.0, 2023-09-13 10:58:46.490
21.0, -134.2445771985742, 187500.0, 187500.0, 187500.0, 187500.0, 187500.0, 187500.0, 187500.0, 0.028, -0.01, 1.002, 192.0, 0.0, 0.0, 0.0, 0.0, 0.0, 0.0, 0.0, 0.0, 0.0, 1.6945955264901035E9, 0.0, 2023-09-13 10:58:46.490
22.0, -161.80427811196782, 187500.0, 187500.0, 187500.0, 187500.0, 187500.0, 187500.0, 187500.0, 0.028, -0.01, 1.002, 192.0, 0.0, 0.0, 0.0, 0.0, 0.0, 0.0, 0.0, 0.0, 0.0, 1.6945955264902165E9, 0.0, 2023-09-13 10:58:46.490
23.0, -163.637121157303, 187500.0, 187500.0, 187500.0, 187500.0, 187500.0, 187500.0, 187500.0, 0.028, -0.01, 1.002, 192.0, 0.0, 0.0, 0.0, 0.0, 0.0, 0.0, 0.0, 0.0, 0.0, 1.6945955264902601E9, 0.0, 2023-09-13 10:58:46.490
24.0, -131.9646992641329, 187500.0, 187500.0, 187500.0, 187500.0, 187500.0, 187500.0, 187500.0, 0.028, -0.01, 1.002, 192.0, 0.0, 0.0, 0.0, 0.0, 0.0, 0.0, 0.0, 0.0, 0.0, 1.6945955264903028E9, 0.0, 2023-09-13 10:58:46.490
25.0, 8.337200681829534, 187500.0, 187500.0, 187500.0, 187500.0, 187500.0, 187500.0, 187500.0, 0.028, -0.01, 1.002, 192.0, 0.0, 0.0, 0.0, 0.0, 0.0, 0.0, 0.0, 0.0, 0.0, 1.6945955264903457E9, 0.0, 2023-09-13 10:58:46.490
26.0, 45.709317411102944, 187500.0, 187500.0, 187500.0, 187500.0, 187500.0, 187500.0, 187500.0, 0.028, -0.01, 1.002, 192.0, 0.0, 0.0, 0.0, 0.0, 0.0, 0.0, 0.0, 0.0, 0.0, 1.694595526490389E9, 0.0, 2023-09-13 10:58:46.490
27.0, 52.14661981423138, 187500.0, 187500.0, 187500.0, 187500.0, 187500.0, 187500.0, 187500.0, 0.028, -0.01, 1.002, 192.0, 0.0, 0.0, 0.0, 0.0, 0.0, 0.0, 0.0, 0.0, 0.0, 1.694595526490435E9, 0.0, 2023-09-13 10:58:46.490
28.0, 11.064113505376996, 187500.0, 187500.0, 187500.0, 187500.0, 187500.0, 187500.0, 187500.0, 0.028, -0.01, 1.002, 192.0, 0.0, 0.0, 0.0, 0.0, 0.0, 0.0, 0.0, 0.0, 0.0, 1.694595526490736E9, 0.0, 2023-09-13 10:58:46.490
29.0, -138.15613247825294, 187500.0, 187500.0, 187500.0, 187500.0, 187500.0, 187500.0, 187500.0, 0.026000000000000002, -0.014, 0.998, 192.0, 0.0, 208.0, 255.0, 144.0, 31.0, 48.0, 0.0, 0.0, 0.0, 1.694595526490861E9, 0.0, 2023-09-13 10:58:46.490
30.0, -170.96849333864373, 187500.0, 187500.0, 187500.0, 187500.0, 187500.0, 187500.0, 187500.0, 0.026000000000000002, -0.014, 0.998, 192.0, 0.0, 0.0, 0.0, 0.0, 0.0, 0.0, 0.0, 0.0, 0.0, 1.6945955264909215E9, 0.0, 2023-09-13 10:58:46.490
31.0, -165.76053688055717, 187500.0, 187500.0, 187500.0, 187500.0, 187500.0, 187500.0, 187500.0, 0.026000000000000002, -0.014, 0.998, 192.0, 0.0, 0.0, 0.0, 0.0, 0.0, 0.0, 0.0, 0.0, 0.0, 1.69459552649097E9, 0.0, 2023-09-13 10:58:46.490
32.0, -127.09201897287596, 187500.0, 187500.0, 187500.0, 187500.0, 187500.0, 187500.0, 187500.0, 0.026000000000000002, -0.014, 0.998, 192.0, 0.0, 0.0, 0.0, 0.0, 0.0, 0.0, 0.0, 0.0, 0.0, 1.6945955264910207E9, 0.0, 2023-09-13 10:58:46.491
33.0, 14.506282151494284, 187500.0, 187500.0, 187500.0, 187500.0, 187500.0, 187500.0, 187500.0, 0.026000000000000002, -0.014, 0.998, 192.0, 0.0, 0.0, 0.0, 0.0, 0.0, 0.0, 0.0, 0.0, 0.0, 1.694595526491074E9, 0.0, 2023-09-13 10:58:46.491
34.0, 43.340032498840394, 187500.0, 187500.0, 187500.0, 187500.0, 187500.0, 187500.0, 187500.0, 0.026000000000000002, -0.014, 0.998, 192.0, 0.0, 0.0, 0.0, 0.0, 0.0, 0.0, 0.0, 0.0, 0.0, 1.694595526491122E9, 0.0, 2023-09-13 10:58:46.491
35.0, 43.049459820921406, 187500.0, 187500.0, 187500.0, 187500.0, 187500.0, 187500.0, 187500.0, 0.026000000000000002, -0.014, 0.998, 192.0, 0.0, 0.0, 0.0, 0.0, 0.0, 0.0, 0.0, 0.0, 0.0, 1.6945955264911823E9, 0.0, 2023-09-13 10:58:46.491
36.0, 9.20891871558651, 187500.0, 187500.0, 187500.0, 187500.0, 187500.0, 187500.0, 187500.0, 0.026000000000000002, -0.014, 0.998, 192.0, 0.0, 0.0, 0.0, 0.0, 0.0, 0.0, 0.0, 0.0, 0.0, 1.694595526491289E9, 0.0, 2023-09-13 10:58:46.491
37.0, -129.23778644058544, 187500.0, 187500.0, 187500.0, 187500.0, 187500.0, 187500.0, 187500.0, 0.026000000000000002, -0.014, 0.998, 192.0, 0.0, 0.0, 0.0, 0.0, 0.0, 0.0, 0.0, 0.0, 0.0, 1.6945955264916725E9, 0.0, 2023-09-13 10:58:46.491
38.0, -163.21243801265217, 187500.0, 187500.0, 187500.0, 187500.0, 187500.0, 187500.0, 187500.0, 0.026000000000000002, -0.014, 0.998, 192.0, 0.0, 0.0, 0.0, 0.0, 0.0, 0.0, 0.0, 0.0, 0.0, 1.6945955264917195E9, 0.0, 2023-09-13 10:58:46.491
39.0, -170.94614159418842, 187500.0, 187500.0, 187500.0, 187500.0, 187500.0, 187500.0, 187500.0, 0.028, -0.01, 1.004, 192.0, 0.0, 224.0, 255.0, 176.0, 31.0, 96.0, 0.0, 0.0, 0.0, 1.6945955264917736E9, 0.0, 2023-09-13 10:58:46.491
40.0, -133.8869492872893, 187500.0, 187500.0, 187500.0, 187500.0, 187500.0, 187500.0, 187500.0, 0.028, -0.01, 1.004, 192.0, 0.0, 0.0, 0.0, 0.0, 0.0, 0.0, 0.0, 0.0, 0.0, 1.6945955264918516E9, 0.0, 2023-09-13 10:58:46.491
41.0, 12.539328639427263, 187500.0, 187500.0, 187500.0, 187500.0, 187500.0, 187500.0, 187500.0, 0.028, -0.01, 1.004, 192.0, 0.0, 0.0, 0.0, 0.0, 0.0, 0.0, 0.0, 0.0, 0.0, 1.6945955264919205E9, 0.0, 2023-09-13 10:58:46.491
42.0, 49.933797113155975, 187500.0, 187500.0, 187500.0, 187500.0, 187500.0, 187500.0, 187500.0, 0.028, -0.01, 1.004, 192.0, 0.0, 0.0, 0.0, 0.0, 0.0, 0.0, 0.0, 0.0, 0.0, 1.6945955264921863E9, 0.0, 2023-09-13 10:58:46.492
43.0, 48.413878490195096, 187500.0, 187500.0, 187500.0, 187500.0, 187500.0, 187500.0, 187500.0, 0.028, -0.01, 1.004, 192.0, 0.0, 0.0, 0.0, 0.0, 0.0, 0.0, 0.0, 0.0, 0.0, 1.6945955264922404E9, 0.0, 2023-09-13 10:58:46.492
44.0, 6.0126192584776, 187500.0, 187500.0, 187500.0, 187500.0, 187500.0, 187500.0, 187500.0, 0.028, -0.01, 1.004, 192.0, 0.0, 0.0, 0.0, 0.0, 0.0, 0.0, 0.0, 0.0, 0.0, 1.6945955264922874E9, 0.0, 2023-09-13 10:58:46.492
45.0, -138.22318771161886, 187500.0, 187500.0, 187500.0, 187500.0, 187500.0, 187500.0, 187500.0, 0.028, -0.01, 1.004, 192.0, 0.0, 0.0, 0.0, 0.0, 0.0, 0.0, 0.0, 0.0, 0.0, 1.6945955264923327E9, 0.0, 2023-09-13 10:58:46.492
46.0, -166.7887171255013, 187500.0, 187500.0, 187500.0, 187500.0, 187500.0, 187500.0, 187500.0, 0.028, -0.01, 1.004, 192.0, 0.0, 0.0, 0.0, 0.0, 0.0, 0.0, 0.0, 0.0, 0.0, 1.6945955264923778E9, 0.0, 2023-09-13 10:58:46.492
47.0, -162.43012695671644, 187500.0, 187500.0, 187500.0, 187500.0, 187500.0, 187500.0, 187500.0, 0.028, -0.01, 1.004, 192.0, 0.0, 0.0, 0.0, 0.0, 0.0, 0.0, 0.0, 0.0, 0.0, 1.694595526492425E9, 0.0, 2023-09-13 10:58:46.492
48.0, -127.82962653990108, 187500.0, 187500.0, 187500.0, 187500.0, 187500.0, 187500.0, 187500.0, 0.028, -0.01, 1.004, 192.0, 0.0, 0.0, 0.0, 0.0, 0.0, 0.0, 0.0, 0.0, 0.0, 1.6945955264924743E9, 0.0, 2023-09-13 10:58:46.492
49.0, 8.583069870837912, 187500.0, 187500.0, 187500.0, 187500.0, 187500.0, 187500.0, 187500.0, 0.028, -0.012, 1.004, 192.0, 0.0, 224.0, 255.0, 160.0, 31.0, 96.0, 0.0, 0.0, 0.0, 1.6945955264925256E9, 0.0, 2023-09-13 10:58:46.492
50.0, 41.283672008952145, 187500.0, 187500.0, 187500.0, 187500.0, 187500.0, 187500.0, 187500.0, 0.028, -0.012, 1.004, 192.0, 0.0, 0.0, 0.0, 0.0, 0.0, 0.0, 0.0, 0.0, 0.0, 1.6945955264925811E9, 0.0, 2023-09-13 10:58:46.492
51.0, 45.910483111200705, 187500.0, 187500.0, 187500.0, 187500.0, 187500.0, 187500.0, 187500.0, 0.028, -0.012, 1.004, 192.0, 0.0, 0.0, 0.0, 0.0, 0.0, 0.0, 0.0, 0.0, 0.0, 1.6945955264926317E9, 0.0, 2023-09-13 10:58:46.492
52.0, 13.366343184273623, 187500.0, 187500.0, 187500.0, 187500.0, 187500.0, 187500.0, 187500.0, 0.028, -0.012, 1.004, 192.0, 0.0, 0.0, 0.0, 0.0, 0.0, 0.0, 0.0, 0.0, 0.0, 1.6945955264929376E9, 0.0, 2023-09-13 10:58:46.492
53.0, -131.56236786393737, 187500.0, 187500.0, 187500.0, 187500.0, 187500.0, 187500.0, 187500.0, 0.028, -0.012, 1.004, 192.0, 0.0, 0.0, 0.0, 0.0, 0.0, 0.0, 0.0, 0.0, 0.0, 1.6945955264929857E9, 0.0, 2023-09-13 10:58:46.492
54.0, -169.2921125044957, 187500.0, 187500.0, 187500.0, 187500.0, 187500.0, 187500.0, 187500.0, 0.028, -0.012, 1.004, 192.0, 0.0, 0.0, 0.0, 0.0, 0.0, 0.0, 0.0, 0.0, 0.0, 1.6945955264930313E9, 0.0, 2023-09-13 10:58:46.493
55.0, -171.03554857200965, 187500.0, 187500.0, 187500.0, 187500.0, 187500.0, 187500.0, 187500.0, 0.028, -0.012, 1.004, 192.0, 0.0, 0.0, 0.0, 0.0, 0.0, 0.0, 0.0, 0.0, 0.0, 1.6945955264930823E9, 0.0, 2023-09-13 10:58:46.493
56.0, -130.22126319661893, 187500.0, 187500.0, 187500.0, 187500.0, 187500.0, 187500.0, 187500.0, 0.028, -0.012, 1.004, 192.0, 0.0, 0.0, 0.0, 0.0, 0.0, 0.0, 0.0, 0.0, 0.0, 1.694595526493133E9, 0.0, 2023-09-13 10:58:46.493
57.0, 16.96497404157806, 187500.0, 187500.0, 187500.0, 187500.0, 187500.0, 187500.0, 187500.0, 0.028, -0.012, 1.004, 192.0, 0.0, 0.0, 0.0, 0.0, 0.0, 0.0, 0.0, 0.0, 0.0, 1.694595526493186E9, 0.0, 2023-09-13 10:58:46.493
58.0, 48.279768023463255, 187500.0, 187500.0, 187500.0, 187500.0, 187500.0, 187500.0, 187500.0, 0.028, -0.012, 1.004, 192.0, 0.0, 0.0, 0.0, 0.0, 0.0, 0.0, 0.0, 0.0, 0.0, 1.6945955264932325E9, 0.0, 2023-09-13 10:58:46.493
59.0, 44.27880576596329, 187500.0, 187500.0, 187500.0, 187500.0, 187500.0, 187500.0, 187500.0, 0.028, -0.016, 1.006, 192.0, 0.0, 224.0, 255.0, 128.0, 31.0, 112.0, 0.0, 0.0, 0.0, 1.6945955264932792E9, 0.0, 2023-09-13 10:58:46.493
60.0, 4.202127957597728, 187500.0, 187500.0, 187500.0, 187500.0, 187500.0, 187500.0, 187500.0, 0.028, -0.016, 1.006, 192.0, 0.0, 0.0, 0.0, 0.0, 0.0, 0.0, 0.0, 0.0, 0.0, 1.6945955264933374E9, 0.0, 2023-09-13 10:58:46.493
61.0, -135.18335046569712, 187500.0, 187500.0, 187500.0, 187500.0, 187500.0, 187500.0, 187500.0, 0.028, -0.016, 1.006, 192.0, 0.0, 0.0, 0.0, 0.0, 0.0, 0.0, 0.0, 0.0, 0.0, 1.6945955264933891E9, 0.0, 2023-09-13 10:58:46.493
62.0, -162.2736647455293, 187500.0, 187500.0, 187500.0, 187500.0, 187500.0, 187500.0, 187500.0, 0.028, -0.016, 1.006, 192.0, 0.0, 0.0, 0.0, 0.0, 0.0, 0.0, 0.0, 0.0, 0.0, 1.6945955264934416E9, 0.0, 2023-09-13 10:58:46.493
63.0, -164.82176361343429, 187500.0, 187500.0, 187500.0, 187500.0, 187500.0, 187500.0, 187500.0, 0.028, -0.016, 1.006, 192.0, 0.0, 0.0, 0.0, 0.0, 0.0, 0.0, 0.0, 0.0, 0.0, 1.6945955264934928E9, 0.0, 2023-09-13 10:58:46.493
64.0, -132.76936206452396, 187500.0, 187500.0, 187500.0, 187500.0, 187500.0, 187500.0, 187500.0, 0.028, -0.016, 1.006, 192.0, 0.0, 0.0, 0.0, 0.0, 0.0, 0.0, 0.0, 0.0, 0.0, 1.694595526493544E9, 0.0, 2023-09-13 10:58:46.493
65.0, 8.06897974836585, 187500.0, 187500.0, 187500.0, 187500.0, 187500.0, 187500.0, 187500.0, 0.028, -0.016, 1.006, 192.0, 0.0, 0.0, 0.0, 0.0, 0.0, 0.0, 0.0, 0.0, 0.0, 1.6945955264935973E9, 0.0, 2023-09-13 10:58:46.493
66.0, 44.390564488239825, 187500.0, 187500.0, 187500.0, 187500.0, 187500.0, 187500.0, 187500.0, 0.028, -0.016, 1.006, 192.0, 0.0, 0.0, 0.0, 0.0, 0.0, 0.0, 0.0, 0.0, 0.0, 1.6945955264936514E9, 0.0, 2023-09-13 10:58:46.493
67.0, 50.38083200226212, 187500.0, 187500.0, 187500.0, 187500.0, 187500.0, 187500.0, 187500.0, 0.028, -0.016, 1.006, 192.0, 0.0, 0.0, 0.0, 0.0, 0.0, 0.0, 0.0, 0.0, 0.0, 1.6945955264937031E9, 0.0, 2023-09-13 10:58:46.493
68.0, 11.7123140945809, 187500.0, 187500.0, 187500.0, 187500.0, 187500.0, 187500.0, 187500.0, 0.028, -0.016, 1.006, 192.0, 0.0, 0.0, 0.0, 0.0, 0.0, 0.0, 0.0, 0.0, 0.0, 1.6945955264939544E9, 0.0, 2023-09-13 10:58:46.493
69.0, -136.01036501054347, 187500.0, 187500.0, 187500.0, 187500.0, 187500.0, 187500.0, 187500.0, 0.02, -0.014, 1.006, 192.0, 0.0, 160.0, 255.0, 144.0, 31.0, 112.0, 0.0, 0.0, 0.0, 1.6945955264940116E9, 0.0, 2023-09-13 10:58:46.494
70.0, -170.72262414963535, 187500.0, 187500.0, 187500.0, 187500.0, 187500.0, 187500.0, 187500.0, 0.02, -0.014, 1.006, 192.0, 0.0, 0.0, 0.0, 0.0, 0.0, 0.0, 0.0, 0.0, 0.0, 1.6945955264940672E9, 0.0, 2023-09-13 10:58:46.494
71.0, -167.52632469252643, 187500.0, 187500.0, 187500.0, 187500.0, 187500.0, 187500.0, 187500.0, 0.02, -0.014, 1.006, 192.0, 0.0, 0.0, 0.0, 0.0, 0.0, 0.0, 0.0, 0.0, 0.0, 1.6945955264941206E9, 0.0, 2023-09-13 10:58:46.494
72.0, -125.43798988318323, 187500.0, 187500.0, 187500.0, 187500.0, 187500.0, 187500.0, 187500.0, 0.02, -0.014, 1.006, 192.0, 0.0, 0.0, 0.0, 0.0, 0.0, 0.0, 0.0, 0.0, 0.0, 1.6945955264941745E9, 0.0, 2023-09-13 10:58:46.494
73.0, 14.260412962485907, 187500.0, 187500.0, 187500.0, 187500.0, 187500.0, 187500.0, 187500.0, 0.02, -0.014, 1.006, 192.0, 0.0, 0.0, 0.0, 0.0, 0.0, 0.0, 0.0, 0.0, 0.0, 1.6945955264942267E9, 0.0, 2023-09-13 10:58:46.494
74.0, 44.09999181032084, 187500.0, 187500.0, 187500.0, 187500.0, 187500.0, 187500.0, 187500.0, 0.02, -0.014, 1.006, 192.0, 0.0, 0.0, 0.0, 0.0, 0.0, 0.0, 0.0, 0.0, 0.0, 1.6945955264942772E9, 0.0, 2023-09-13 10:58:46.494
75.0, 42.11068655379851, 187500.0, 187500.0, 187500.0, 187500.0, 187500.0, 187500.0, 187500.0, 0.02, -0.014, 1.006, 192.0, 0.0, 0.0, 0.0, 0.0, 0.0, 0.0, 0.0, 0.0, 0.0, 1.6945955264943297E9, 0.0, 2023-09-13 10:58:46.494
76.0, 8.739532082025061, 187500.0, 187500.0, 187500.0, 187500.0, 187500.0, 187500.0, 187500.0, 0.02, -0.014, 1.006, 192.0, 0.0, 0.0, 0.0, 0.0, 0.0, 0.0, 0.0, 0.0, 0.0, 1.694595526494383E9, 0.0, 2023-09-13 10:58:46.494
77.0, -130.22126319661893, 187500.0, 187500.0, 187500.0, 187500.0, 187500.0, 187500.0, 187500.0, 0.02, -0.014, 1.006, 192.0, 0.0, 0.0, 0.0, 0.0, 0.0, 0.0, 0.0, 0.0, 0.0, 1.6945955264944353E9, 0.0, 2023-09-13 10:58:46.494
78.0, -163.52536243502647, 187500.0, 187500.0, 187500.0, 187500.0, 187500.0, 187500.0, 187500.0, 0.02, -0.014, 1.006, 192.0, 0.0, 0.0, 0.0, 0.0, 0.0, 0.0, 0.0, 0.0, 0.0, 1.694595526494486E9, 0.0, 2023-09-13 10:58:46.494
79.0, -168.3086357484622, 187500.0, 187500.0, 187500.0, 187500.0, 187500.0, 187500.0, 187500.0, 0.024, -0.014, 1.008, 192.0, 0.0, 192.0, 255.0, 144.0, 31.0, 128.0, 0.0, 0.0, 0.0, 1.6945955264945366E9, 0.0, 2023-09-13 10:58:46.494
80.0, -133.5963766093703, 187500.0, 187500.0, 187500.0, 187500.0, 187500.0, 187500.0, 187500.0, 0.024, -0.014, 1.008, 192.0, 0.0, 0.0, 0.0, 0.0, 0.0, 0.0, 0.0, 0.0, 0.0, 1.6945955264945893E9, 0.0, 2023-09-13 10:58:46.494
81.0, 11.466444905572523, 187500.0, 187500.0, 187500.0, 187500.0, 187500.0, 187500.0, 187500.0, 0.024, -0.014, 1.008, 192.0, 0.0, 0.0, 0.0, 0.0, 0.0, 0.0, 0.0, 0.0, 0.0, 1.6945955264946413E9, 0.0, 2023-09-13 10:58:46.494
82.0, 50.80551514691295, 187500.0, 187500.0, 187500.0, 187500.0, 187500.0, 187500.0, 187500.0, 0.024, -0.014, 1.008, 192.0, 0.0, 0.0, 0.0, 0.0, 0.0, 0.0, 0.0, 0.0, 0.0, 1.6945955264946945E9, 0.0, 2023-09-13 10:58:46.494
83.0, 49.08443082385431, 187500.0, 187500.0, 187500.0, 187500.0, 187500.0, 187500.0, 187500.0, 0.024, -0.014, 1.008, 192.0, 0.0, 0.0, 0.0, 0.0, 0.0, 0.0, 0.0, 0.0, 0.0, 1.6945955264948928E9, 0.0, 2023-09-13 10:58:46.494
84.0, 5.207956458086546, 187500.0, 187500.0, 187500.0, 187500.0, 187500.0, 187500.0, 187500.0, 0.024, -0.014, 1.008, 192.0, 0.0, 0.0, 0.0, 0.0, 0.0, 0.0, 0.0, 0.0, 0.0, 1.694595526494953E9, 0.0, 2023-09-13 10:58:46.494
85.0, -138.11142898934233, 187500.0, 187500.0, 187500.0, 187500.0, 187500.0, 187500.0, 187500.0, 0.024, -0.014, 1.008, 192.0, 0.0, 0.0, 0.0, 0.0, 0.0, 0.0, 0.0, 0.0, 0.0, 1.6945955264950116E9, 0.0, 2023-09-13 10:58:46.495
86.0, -166.05110955847616, 187500.0, 187500.0, 187500.0, 187500.0, 187500.0, 187500.0, 187500.0, 0.024, -0.014, 1.008, 192.0, 0.0, 0.0, 0.0, 0.0, 0.0, 0.0, 0.0, 0.0, 0.0, 1.6945955264950705E9, 0.0, 2023-09-13 10:58:46.495
87.0, -162.36307172335052, 187500.0, 187500.0, 187500.0, 187500.0, 187500.0, 187500.0, 187500.0, 0.024, -0.014, 1.008, 192.0, 0.0, 0.0, 0.0, 0.0, 0.0, 0.0, 0.0, 0.0, 0.0, 1.6945955264951172E9, 0.0, 2023-09-13 10:58:46.495
88.0, -127.51670211752679, 187500.0, 187500.0, 187500.0, 187500.0, 187500.0, 187500.0, 187500.0, 0.024, -0.014, 1.008, 192.0, 0.0, 0.0, 0.0, 0.0, 0.0, 0.0, 0.0, 0.0, 0.0, 1.6945955264951668E9, 0.0, 2023-09-13 10:58:46.495
89.0, 9.410084415684274, 187500.0, 187500.0, 187500.0, 187500.0, 187500.0, 187500.0, 187500.0, 0.026000000000000002, -0.014, 1.008, 192.0, 0.0, 208.0, 255.0, 144.0, 31.0, 128.0, 0.0, 0.0, 0.0, 1.6945955264952147E9, 0.0, 2023-09-13 10:58:46.495
90.0, 43.42943947666162, 187500.0, 187500.0, 187500.0, 187500.0, 187500.0, 187500.0, 187500.0, 0.026000000000000002, -0.014, 1.008, 192.0, 0.0, 0.0, 0.0, 0.0, 0.0, 0.0, 0.0, 0.0, 0.0, 1.6945955264952655E9, 0.0, 2023-09-13 10:58:46.495
91.0, 46.17870404466439, 187500.0, 187500.0, 187500.0, 187500.0, 187500.0, 187500.0, 187500.0, 0.026000000000000002, -0.014, 1.008, 192.0, 0.0, 0.0, 0.0, 0.0, 0.0, 0.0, 0.0, 0.0, 0.0, 1.694595526495314E9, 0.0, 2023-09-13 10:58:46.495
92.0, 11.913479794678665, 187500.0, 187500.0, 187500.0, 187500.0, 187500.0, 187500.0, 187500.0, 0.026000000000000002, -0.014, 1.008, 192.0, 0.0, 0.0, 0.0, 0.0, 0.0, 0.0, 0.0, 0.0, 0.0, 1.6945955264953609E9, 0.0, 2023-09-13 10:58:46.495
93.0, -131.09298123037593, 187500.0, 187500.0, 187500.0, 187500.0, 187500.0, 187500.0, 187500.0, 0.026000000000000002, -0.014, 1.008, 192.0, 0.0, 0.0, 0.0, 0.0, 0.0, 0.0, 0.0, 0.0, 0.0, 1.694595526495408E9, 0.0, 2023-09-13 10:58:46.495
94.0, -169.56033343795937, 187500.0, 187500.0, 187500.0, 187500.0, 187500.0, 187500.0, 187500.0, 0.026000000000000002, -0.014, 1.008, 192.0, 0.0, 0.0, 0.0, 0.0, 0.0, 0.0, 0.0, 0.0, 0.0, 1.694595526495456E9, 0.0, 2023-09-13 10:58:46.495
95.0, -172.04137707249845, 187500.0, 187500.0, 187500.0, 187500.0, 187500.0, 187500.0, 187500.0, 0.026000000000000002, -0.014, 1.008, 192.0, 0.0, 0.0, 0.0, 0.0, 0.0, 0.0, 0.0, 0.0, 0.0, 1.6945955264955032E9, 0.0, 2023-09-13 10:58:46.495
96.0, -129.95304226315525, 187500.0, 187500.0, 187500.0, 187500.0, 187500.0, 187500.0, 187500.0, 0.026000000000000002, -0.014, 1.008, 192.0, 0.0, 0.0, 0.0, 0.0, 0.0, 0.0, 0.0, 0.0, 0.0, 1.6945955264955485E9, 0.0, 2023-09-13 10:58:46.495
97.0, 17.613174630781966, 187500.0, 187500.0, 187500.0, 187500.0, 187500.0, 187500.0, 187500.0, 0.026000000000000002, -0.014, 1.008, 192.0, 0.0, 0.0, 0.0, 0.0, 0.0, 0.0, 0.0, 0.0, 0.0, 1.6945955264955947E9, 0.0, 2023-09-13 10:58:46.495
98.0, 48.23506453455264, 187500.0, 187500.0, 187500.0, 187500.0, 187500.0, 187500.0, 187500.0, 0.026000000000000002, -0.014, 1.008, 192.0, 0.0, 0.0, 0.0, 0.0, 0.0, 0.0, 0.0, 0.0, 0.0, 1.6945955264957263E9, 0.0, 2023-09-13 10:58:46.495
99.0, 42.78123888745772, 187500.0, 187500.0, 187500.0, 187500.0, 187500.0, 187500.0, 187500.0, 0.026000000000000002, -0.01, 1.004, 192.0, 0.0, 208.0, 255.0, 176.0, 31.0, 96.0, 0.0, 0.0, 0.0, 1.6945955264957728E9, 0.0, 2023-09-13 10:58:46.495
100.0, 4.827976802346326, 187500.0, 187500.0, 187500.0, 187500.0, 187500.0, 187500.0, 187500.0, 0.026000000000000002, -0.01, 1.004, 192.0, 0.0, 0.0, 0.0, 0.0, 0.0, 0.0, 0.0, 0.0, 0.0, 1.6945955264958243E9, 0.0, 2023-09-13 10:58:46.495
101.0, -134.69161208768037, 187500.0, 187500.0, 187500.0, 187500.0, 187500.0, 187500.0, 187500.0, 0.026000000000000002, -0.01, 1.004, 192.0, 0.0, 0.0, 0.0, 0.0, 0.0, 0.0, 0.0, 0.0, 0.0, 1.6945955264958699E9, 0.0, 2023-09-13 10:58:46.495
102.0, -162.54188567899297, 187500.0, 187500.0, 187500.0, 187500.0, 187500.0, 187500.0, 187500.0, 0.026000000000000002, -0.01, 1.004, 192.0, 0.0, 0.0, 0.0, 0.0, 0.0, 0.0, 0.0, 0.0, 0.0, 1.6945955264959152E9, 0.0, 2023-09-13 10:58:46.495
103.0, -164.30767349096223, 187500.0, 187500.0, 187500.0, 187500.0, 187500.0, 187500.0, 187500.0, 0.026000000000000002, -0.01, 1.004, 192.0, 0.0, 0.0, 0.0, 0.0, 0.0, 0.0, 0.0, 0.0, 0.0, 1.6945955264959607E9, 0.0, 2023-09-13 10:58:46.495
104.0, -132.5234928755156, 187500.0, 187500.0, 187500.0, 187500.0, 187500.0, 187500.0, 187500.0, 0.026000000000000002, -0.01, 1.004, 192.0, 0.0, 0.0, 0.0, 0.0, 0.0, 0.0, 0.0, 0.0, 0.0, 1.6945955264960048E9, 0.0, 2023-09-13 10:58:46.496
105.0, 7.30902043688541, 187500.0, 187500.0, 187500.0, 187500.0, 187500.0, 187500.0, 187500.0, 0.026000000000000002, -0.01, 1.004, 192.0, 0.0, 0.0, 0.0, 0.0, 0.0, 0.0, 0.0, 0.0, 0.0, 1.6945955269651213E9, 0.0, 2023-09-13 10:58:46.965
106.0, 46.8492563783236, 187500.0, 187500.0, 187500.0, 187500.0, 187500.0, 187500.0, 187500.0, 0.026000000000000002, -0.01, 1.004, 192.0, 0.0, 0.0, 0.0, 0.0, 0.0, 0.0, 0.0, 0.0, 0.0, 1.6945955269654565E9, 0.0, 2023-09-13 10:58:46.965
107.0, 50.403183746717424, 187500.0, 187500.0, 187500.0, 187500.0, 187500.0, 187500.0, 187500.0, 0.026000000000000002, -0.01, 1.004, 192.0, 0.0, 0.0, 0.0, 0.0, 0.0, 0.0, 0.0, 0.0, 0.0, 1.6945955269654884E9, 0.0, 2023-09-13 10:58:46.965
108.0, 10.550023382904934, 187500.0, 187500.0, 187500.0, 187500.0, 187500.0, 187500.0, 187500.0, 0.026000000000000002, -0.01, 1.004, 192.0, 0.0, 0.0, 0.0, 0.0, 0.0, 0.0, 0.0, 0.0, 0.0, 1.6945955269655151E9, 0.0, 2023-09-13 10:58:46.965
109.0, -137.77615282251273, 187500.0, 187500.0, 187500.0, 187500.0, 187500.0, 187500.0, 187500.0, 0.024, -0.014, 1.006, 192.0, 0.0, 192.0, 255.0, 144.0, 31.0, 112.0, 0.0, 0.0, 0.0, 1.6945955269655411E9, 0.0, 2023-09-13 10:58:46.965
110.0, -171.10260380537557, 187500.0, 187500.0, 187500.0, 187500.0, 187500.0, 187500.0, 187500.0, 0.024, -0.014, 1.006, 192.0, 0.0, 0.0, 0.0, 0.0, 0.0, 0.0, 0.0, 0.0, 0.0, 1.6945955269655695E9, 0.0, 2023-09-13 10:58:46.965
111.0, -167.1239932923309, 187500.0, 187500.0, 187500.0, 187500.0, 187500.0, 187500.0, 187500.0, 0.024, -0.014, 1.006, 192.0, 0.0, 0.0, 0.0, 0.0, 0.0, 0.0, 0.0, 0.0, 0.0, 1.6945955269655955E9, 0.0, 2023-09-13 10:58:46.965
112.0, -126.01913523902122, 187500.0, 187500.0, 187500.0, 187500.0, 187500.0, 187500.0, 187500.0, 0.024, -0.014, 1.006, 192.0, 0.0, 0.0, 0.0, 0.0, 0.0, 0.0, 0.0, 0.0, 0.0, 1.6945955269656208E9, 0.0, 2023-09-13 10:58:46.965
113.0, 15.132130996242882, 187500.0, 187500.0, 187500.0, 187500.0, 187500.0, 187500.0, 187500.0, 0.024, -0.014, 1.006, 192.0, 0.0, 0.0, 0.0, 0.0, 0.0, 0.0, 0.0, 0.0, 0.0, 1.6945955269656465E9, 0.0, 2023-09-13 10:58:46.965
114.0, 42.44596272062811, 187500.0, 187500.0, 187500.0, 187500.0, 187500.0, 187500.0, 187500.0, 0.024, -0.014, 1.006, 192.0, 0.0, 0.0, 0.0, 0.0, 0.0, 0.0, 0.0, 0.0, 0.0, 1.694595526965741E9, 0.0, 2023-09-13 10:58:46.965
115.0, 41.887169109245434, 187500.0, 187500.0, 187500.0, 187500.0, 187500.0, 187500.0, 187500.0, 0.024, -0.014, 1.006, 192.0, 0.0, 0.0, 0.0, 0.0, 0.0, 0.0, 0.0, 0.0, 0.0, 1.694595526965767E9, 0.0, 2023-09-13 10:58:46.965
116.0, 7.9125175371787, 187500.0, 187500.0, 187500.0, 187500.0, 187500.0, 187500.0, 187500.0, 0.024, -0.014, 1.006, 192.0, 0.0, 0.0, 0.0, 0.0, 0.0, 0.0, 0.0, 0.0, 0.0, 1.694595526965792E9, 0.0, 2023-09-13 10:58:46.965
117.0, -128.83545504038992, 187500.0, 187500.0, 187500.0, 187500.0, 187500.0, 187500.0, 187500.0, 0.024, -0.014, 1.006, 192.0, 0.0, 0.0, 0.0, 0.0, 0.0, 0.0, 0.0, 0.0, 0.0, 1.6945955269658175E9, 0.0, 2023-09-13 10:58:46.965
118.0, -162.25131300107398, 187500.0, 187500.0, 187500.0, 187500.0, 187500.0, 187500.0, 187500.0, 0.024, -0.014, 1.006, 192.0, 0.0, 0.0, 0.0, 0.0, 0.0, 0.0, 0.0, 0.0, 0.0, 1.6945955269658427E9, 0.0, 2023-09-13 10:58:46.965
119.0, -170.78967938300127, 187500.0, 187500.0, 187500.0, 187500.0, 187500.0, 187500.0, 187500.0, 0.024, -0.012, 1.004, 192.0, 0.0, 192.0, 255.0, 160.0, 31.0, 96.0, 0.0, 0.0, 0.0, 1.6945955269658675E9, 0.0, 2023-09-13 10:58:46.965
120.0, -135.831551054901, 187500.0, 187500.0, 187500.0, 187500.0, 187500.0, 187500.0, 187500.0, 0.024, -0.012, 1.004, 192.0, 0.0, 0.0, 0.0, 0.0, 0.0, 0.0, 0.0, 0.0, 0.0, 1.6945955269658961E9, 0.0, 2023-09-13 10:58:46.965
121.0, 13.075770506354631, 187500.0, 187500.0, 187500.0, 187500.0, 187500.0, 187500.0, 187500.0, 0.024, -0.012, 1.004, 192.0, 0.0, 0.0, 0.0, 0.0, 0.0, 0.0, 0.0, 0.0, 0.0, 1.6945955269659216E9, 0.0, 2023-09-13 10:58:46.965
122.0, 50.716108169091726, 187500.0, 187500.0, 187500.0, 187500.0, 187500.0, 187500.0, 187500.0, 0.024, -0.012, 1.004, 192.0, 0.0, 0.0, 0.0, 0.0, 0.0, 0.0, 0.0, 0.0, 0.0, 1.694595526965947E9, 0.0, 2023-09-13 10:58:46.965
123.0, 49.129134312764926, 187500.0, 187500.0, 187500.0, 187500.0, 187500.0, 187500.0, 187500.0, 0.024, -0.012, 1.004, 192.0, 0.0, 0.0, 0.0, 0.0, 0.0, 0.0, 0.0, 0.0, 0.0, 1.6945955269659717E9, 0.0, 2023-09-13 10:58:46.965
124.0, 5.364418669273695, 187500.0, 187500.0, 187500.0, 187500.0, 187500.0, 187500.0, 187500.0, 0.024, -0.012, 1.004, 192.0, 0.0, 0.0, 0.0, 0.0, 0.0, 0.0, 0.0, 0.0, 0.0, 1.6945955269659965E9, 0.0, 2023-09-13 10:58:46.965
125.0, -137.93261503369988, 187500.0, 187500.0, 187500.0, 187500.0, 187500.0, 187500.0, 187500.0, 0.024, -0.012, 1.004, 192.0, 0.0, 0.0, 0.0, 0.0, 0.0, 0.0, 0.0, 0.0, 0.0, 1.69459552696603E9, 0.0, 2023-09-13 10:58:46.966
126.0, -166.54284793649293, 187500.0, 187500.0, 187500.0, 187500.0, 187500.0, 187500.0, 187500.0, 0.024, -0.012, 1.004, 192.0, 0.0, 0.0, 0.0, 0.0, 0.0, 0.0, 0.0, 0.0, 0.0, 1.6945955269660525E9, 0.0, 2023-09-13 10:58:46.966
127.0, -162.6312926568142, 187500.0, 187500.0, 187500.0, 187500.0, 187500.0, 187500.0, 187500.0, 0.024, -0.012, 1.004, 192.0, 0.0, 0.0, 0.0, 0.0, 0.0, 0.0, 0.0, 0.0, 0.0, 1.6945955269660757E9, 0.0, 2023-09-13 10:58:46.966
128.0, -127.82962653990108, 187500.0, 187500.0, 187500.0, 187500.0, 187500.0, 187500.0, 187500.0, 0.024, -0.012, 1.004, 192.0, 0.0, 0.0, 0.0, 0.0, 0.0, 0.0, 0.0, 0.0, 0.0, 1.694595526966098E9, 0.0, 2023-09-13 10:58:46.966
129.0, 10.147691982709407, 187500.0, 187500.0, 187500.0, 187500.0, 187500.0, 187500.0, 187500.0, 0.022, -0.01, 1.0, 192.0, 0.0, 176.0, 255.0, 176.0, 31.0, 64.0, 0.0, 0.0, 0.0, 1.6945955269661531E9, 0.0, 2023-09-13 10:58:46.966
130.0, 42.0883348093432, 187500.0, 187500.0, 187500.0, 187500.0, 187500.0, 187500.0, 187500.0, 0.022, -0.01, 1.0, 192.0, 0.0, 0.0, 0.0, 0.0, 0.0, 0.0, 0.0, 0.0, 0.0, 1.694595526966178E9, 0.0, 2023-09-13 10:58:46.966
131.0, 45.41874473318395, 187500.0, 187500.0, 187500.0, 187500.0, 187500.0, 187500.0, 187500.0, 0.022, -0.01, 1.0, 192.0, 0.0, 0.0, 0.0, 0.0, 0.0, 0.0, 0.0, 0.0, 0.0, 1.6945955269662004E9, 0.0, 2023-09-13 10:58:46.966
132.0, 13.500453651005467, 187500.0, 187500.0, 187500.0, 187500.0, 187500.0, 187500.0, 187500.0, 0.022, -0.01, 1.0, 192.0, 0.0, 0.0, 0.0, 0.0, 0.0, 0.0, 0.0, 0.0, 0.0, 1.6945955269662228E9, 0.0, 2023-09-13 10:58:46.966
133.0, -131.76353356403513, 187500.0, 187500.0, 187500.0, 187500.0, 187500.0, 187500.0, 187500.0, 0.022, -0.01, 1.0, 192.0, 0.0, 0.0, 0.0, 0.0, 0.0, 0.0, 0.0, 0.0, 0.0, 1.6945955269662457E9, 0.0, 2023-09-13 10:58:46.966
134.0, -169.6273886713253, 187500.0, 187500.0, 187500.0, 187500.0, 187500.0, 187500.0, 187500.0, 0.022, -0.01, 1.0, 192.0, 0.0, 0.0, 0.0, 0.0, 0.0, 0.0, 0.0, 0.0, 0.0, 1.694595526966268E9, 0.0, 2023-09-13 10:58:46.966
135.0, -170.74497589409066, 187500.0, 187500.0, 187500.0, 187500.0, 187500.0, 187500.0, 187500.0, 0.022, -0.01, 1.0, 192.0, 0.0, 0.0, 0.0, 0.0, 0.0, 0.0, 0.0, 0.0, 0.0, 1.6945955269662905E9, 0.0, 2023-09-13 10:58:46.966
136.0, -130.9588707636441, 187500.0, 187500.0, 187500.0, 187500.0, 187500.0, 187500.0, 187500.0, 0.022, -0.01, 1.0, 192.0, 0.0, 0.0, 0.0, 0.0, 0.0, 0.0, 0.0, 0.0, 0.0, 1.694595526966313E9, 0.0, 2023-09-13 10:58:46.966
137.0, 16.562642641382535, 187500.0, 187500.0, 187500.0, 187500.0, 187500.0, 187500.0, 187500.0, 0.022, -0.01, 1.0, 192.0, 0.0, 0.0, 0.0, 0.0, 0.0, 0.0, 0.0, 0.0, 0.0, 1.6945955269663355E9, 0.0, 2023-09-13 10:58:46.966
138.0, 48.70445116811409, 187500.0, 187500.0, 187500.0, 187500.0, 187500.0, 187500.0, 187500.0, 0.028, -0.012, 1.002, 192.0, 0.0, 224.0, 255.0, 160.0, 31.0, 80.0, 0.0, 0.0, 0.0, 1.694595526966358E9, 0.0, 2023-09-13 10:58:46.966
139.0, 42.89299760973425, 187500.0, 187500.0, 187500.0, 187500.0, 187500.0, 187500.0, 187500.0, 0.028, -0.012, 1.002, 192.0, 0.0, 0.0, 0.0, 0.0, 0.0, 0.0, 0.0, 0.0, 0.0, 1.694595526966382E9, 0.0, 2023-09-13 10:58:46.966
140.0, 3.19629945710891, 187500.0, 187500.0, 187500.0, 187500.0, 187500.0, 187500.0, 187500.0, 0.028, -0.012, 1.002, 192.0, 0.0, 0.0, 0.0, 0.0, 0.0, 0.0, 0.0, 0.0, 0.0, 1.6945955269664044E9, 0.0, 2023-09-13 10:58:46.966
141.0, -134.06576324293175, 187500.0, 187500.0, 187500.0, 187500.0, 187500.0, 187500.0, 187500.0, 0.028, -0.012, 1.002, 192.0, 0.0, 0.0, 0.0, 0.0, 0.0, 0.0, 0.0, 0.0, 0.0, 1.694595526966427E9, 0.0, 2023-09-13 10:58:46.966
142.0, -163.48065894611585, 187500.0, 187500.0, 187500.0, 187500.0, 187500.0, 187500.0, 187500.0, 0.028, -0.012, 1.002, 192.0, 0.0, 0.0, 0.0, 0.0, 0.0, 0.0, 0.0, 0.0, 0.0, 1.6945955269664495E9, 0.0, 2023-09-13 10:58:46.966
143.0, -163.48065894611585, 187500.0, 187500.0, 187500.0, 187500.0, 187500.0, 187500.0, 187500.0, 0.028, -0.012, 1.002, 192.0, 0.0, 0.0, 0.0, 0.0, 0.0, 0.0, 0.0, 0.0, 0.0, 1.694595526966472E9, 0.0, 2023-09-13 10:58:46.966
144.0, -132.67995508670273, 187500.0, 187500.0, 187500.0, 187500.0, 187500.0, 187500.0, 187500.0, 0.028, -0.012, 1.002, 192.0, 0.0, 0.0, 0.0, 0.0, 0.0, 0.0, 0.0, 0.0, 0.0, 1.6945955269665215E9, 0.0, 2023-09-13 10:58:46.966
145.0, 8.426607659650763, 187500.0, 187500.0, 187500.0, 187500.0, 187500.0, 187500.0, 187500.0, 0.028, -0.012, 1.002, 192.0, 0.0, 0.0, 0.0, 0.0, 0.0, 0.0, 0.0, 0.0, 0.0, 1.6945955269665456E9, 0.0, 2023-09-13 10:58:46.966
146.0, 45.46344822209456, 187500.0, 187500.0, 187500.0, 187500.0, 187500.0, 187500.0, 187500.0, 0.028, -0.012, 1.002, 192.0, 0.0, 0.0, 0.0, 0.0, 0.0, 0.0, 0.0, 0.0, 0.0, 1.6945955269665682E9, 0.0, 2023-09-13 10:58:46.966
147.0, 51.2749017804744, 187500.0, 187500.0, 187500.0, 187500.0, 187500.0, 187500.0, 187500.0, 0.028, -0.012, 1.002, 192.0, 0.0, 0.0, 0.0, 0.0, 0.0, 0.0, 0.0, 0.0, 0.0, 1.6945955269665906E9, 0.0, 2023-09-13 10:58:46.966
148.0, 11.220575716564145, 187500.0, 187500.0, 187500.0, 187500.0, 187500.0, 187500.0, 187500.0, 0.028, -0.012, 1.0, 192.0, 0.0, 224.0, 255.0, 160.0, 31.0, 64.0, 0.0, 0.0, 0.0, 1.6945955269666133E9, 0.0, 2023-09-13 10:58:46.966
149.0, -137.73144933360211, 187500.0, 187500.0, 187500.0, 187500.0, 187500.0, 187500.0, 187500.0, 0.028, -0.012, 1.0, 192.0, 0.0, 0.0, 0.0, 0.0, 0.0, 0.0, 0.0, 0.0, 0.0, 1.694595526966637E9, 0.0, 2023-09-13 10:58:46.966
150.0, -170.99084508309903, 187500.0, 187500.0, 187500.0, 187500.0, 187500.0, 187500.0, 187500.0, 0.028, -0.012, 1.0, 192.0, 0.0, 0.0, 0.0, 0.0, 0.0, 0.0, 0.0, 0.0, 0.0, 1.6945955269666593E9, 0.0, 2023-09-13 10:58:46.966
151.0, -167.1016415478756, 187500.0, 187500.0, 187500.0, 187500.0, 187500.0, 187500.0, 187500.0, 0.028, -0.012, 1.0, 192.0, 0.0, 0.0, 0.0, 0.0, 0.0, 0.0, 0.0, 0.0, 0.0, 1.6945955269666817E9, 0.0, 2023-09-13 10:58:46.966
152.0, -126.39911489476144, 187500.0, 187500.0, 187500.0, 187500.0, 187500.0, 187500.0, 187500.0, 0.028, -0.012, 1.0, 192.0, 0.0, 0.0, 0.0, 0.0, 0.0, 0.0, 0.0, 0.0, 0.0, 1.6945955269667044E9, 0.0, 2023-09-13 10:58:46.966
153.0, 14.148654240209371, 187500.0, 187500.0, 187500.0, 187500.0, 187500.0, 187500.0, 187500.0, 0.028, -0.012, 1.0, 192.0, 0.0, 0.0, 0.0, 0.0, 0.0, 0.0, 0.0, 0.0, 0.0, 1.6945955269667268E9, 0.0, 2023-09-13 10:58:46.966
154.0, 43.116515054287326, 187500.0, 187500.0, 187500.0, 187500.0, 187500.0, 187500.0, 187500.0, 0.028, -0.012, 1.0, 192.0, 0.0, 0.0, 0.0, 0.0, 0.0, 0.0, 0.0, 0.0, 0.0, 1.6945955269667487E9, 0.0, 2023-09-13 10:58:46.966
155.0, 40.85898886430131, 187500.0, 187500.0, 187500.0, 187500.0, 187500.0, 187500.0, 187500.0, 0.028, -0.012, 1.0, 192.0, 0.0, 0.0, 0.0, 0.0, 0.0, 0.0, 0.0, 0.0, 0.0, 1.6945955269667711E9, 0.0, 2023-09-13 10:58:46.966
156.0, 7.443130903617252, 187500.0, 187500.0, 187500.0, 187500.0, 187500.0, 187500.0, 187500.0, 0.028, -0.012, 1.0, 192.0, 0.0, 0.0, 0.0, 0.0, 0.0, 0.0, 0.0, 0.0, 0.0, 1.6945955269667935E9, 0.0, 2023-09-13 10:58:46.966
157.0, -129.01426899603237, 187500.0, 187500.0, 187500.0, 187500.0, 187500.0, 187500.0, 187500.0, 0.028, -0.012, 1.0, 192.0, 0.0, 0.0, 0.0, 0.0, 0.0, 0.0, 0.0, 0.0, 0.0, 1.694595526966816E9, 0.0, 2023-09-13 10:58:46.966
158.0, -163.637121157303, 187500.0, 187500.0, 187500.0, 187500.0, 187500.0, 187500.0, 187500.0, 0.03, -0.012, 1.004, 192.0, 0.0, 240.0, 255.0, 160.0, 31.0, 96.0, 0.0, 0.0, 0.0, 1.6945955269668384E9, 0.0, 2023-09-13 10:58:46.966
159.0, -170.0297200715208, 187500.0, 187500.0, 187500.0, 187500.0, 187500.0, 187500.0, 187500.0, 0.03, -0.012, 1.004, 192.0, 0.0, 0.0, 0.0, 0.0, 0.0, 0.0, 0.0, 0.0, 0.0, 1.6945955269669E9, 0.0, 2023-09-13 10:58:46.966
160.0, -134.4904463875826, 187500.0, 187500.0, 187500.0, 187500.0, 187500.0, 187500.0, 187500.0, 0.03, -0.012, 1.004, 192.0, 0.0, 0.0, 0.0, 0.0, 0.0, 0.0, 0.0, 0.0, 0.0, 1.6945955269669263E9, 0.0, 2023-09-13 10:58:46.966
161.0, 12.271107705963578, 187500.0, 187500.0, 187500.0, 187500.0, 187500.0, 187500.0, 187500.0, 0.03, -0.012, 1.004, 192.0, 0.0, 0.0, 0.0, 0.0, 0.0, 0.0, 0.0, 0.0, 0.0, 1.694595526966949E9, 0.0, 2023-09-13 10:58:46.966
162.0, 50.82786689136826, 187500.0, 187500.0, 187500.0, 187500.0, 187500.0, 187500.0, 187500.0, 0.03, -0.012, 1.004, 192.0, 0.0, 0.0, 0.0, 0.0, 0.0, 0.0, 0.0, 0.0, 0.0, 1.6945955269669716E9, 0.0, 2023-09-13 10:58:46.966
163.0, 49.0397273349437, 187500.0, 187500.0, 187500.0, 187500.0, 187500.0, 187500.0, 187500.0, 0.03, -0.012, 1.004, 192.0, 0.0, 0.0, 0.0, 0.0, 0.0, 0.0, 0.0, 0.0, 0.0, 1.6945955269669938E9, 0.0, 2023-09-13 10:58:46.966
164.0, 5.342066924818388, 187500.0, 187500.0, 187500.0, 187500.0, 187500.0, 187500.0, 187500.0, 0.03, -0.012, 1.004, 192.0, 0.0, 0.0, 0.0, 0.0, 0.0, 0.0, 0.0, 0.0, 0.0, 1.6945955269670162E9, 0.0, 2023-09-13 10:58:46.967
165.0, -138.51376038953788, 187500.0, 187500.0, 187500.0, 187500.0, 187500.0, 187500.0, 187500.0, 0.03, -0.012, 1.004, 192.0, 0.0, 0.0, 0.0, 0.0, 0.0, 0.0, 0.0, 0.0, 0.0, 1.694595526967039E9, 0.0, 2023-09-13 10:58:46.967
166.0, -166.98988282559907, 187500.0, 187500.0, 187500.0, 187500.0, 187500.0, 187500.0, 187500.0, 0.03, -0.012, 1.004, 192.0, 0.0, 0.0, 0.0, 0.0, 0.0, 0.0, 0.0, 0.0, 0.0, 1.6945955269670613E9, 0.0, 2023-09-13 10:58:46.967
167.0, -162.20660951216334, 187500.0, 187500.0, 187500.0, 187500.0, 187500.0, 187500.0, 187500.0, 0.03, -0.012, 1.004, 192.0, 0.0, 0.0, 0.0, 0.0, 0.0, 0.0, 0.0, 0.0, 0.0, 1.6945955269670837E9, 0.0, 2023-09-13 10:58:46.967
168.0, -127.71786781762455, 187500.0, 187500.0, 187500.0, 187500.0, 187500.0, 187500.0, 187500.0, 0.026000000000000002, -0.016, 1.004, 192.0, 0.0, 208.0, 255.0, 128.0, 31.0, 96.0, 0.0, 0.0, 0.0, 1.694595526967106E9, 0.0, 2023-09-13 10:58:46.967
169.0, 9.90182279370103, 187500.0, 187500.0, 187500.0, 187500.0, 187500.0, 187500.0, 187500.0, 0.026000000000000002, -0.016, 1.004, 192.0, 0.0, 0.0, 0.0, 0.0, 0.0, 0.0, 0.0, 0.0, 0.0, 1.69459552696713E9, 0.0, 2023-09-13 10:58:46.967
170.0, 43.42943947666162, 187500.0, 187500.0, 187500.0, 187500.0, 187500.0, 187500.0, 187500.0, 0.026000000000000002, -0.016, 1.004, 192.0, 0.0, 0.0, 0.0, 0.0, 0.0, 0.0, 0.0, 0.0, 0.0, 1.6945955269671524E9, 0.0, 2023-09-13 10:58:46.967
171.0, 46.40222148921746, 187500.0, 187500.0, 187500.0, 187500.0, 187500.0, 187500.0, 187500.0, 0.026000000000000002, -0.016, 1.004, 192.0, 0.0, 0.0, 0.0, 0.0, 0.0, 0.0, 0.0, 0.0, 0.0, 1.6945955269671748E9, 0.0, 2023-09-13 10:58:46.967
172.0, 12.516976894971956, 187500.0, 187500.0, 187500.0, 187500.0, 187500.0, 187500.0, 187500.0, 0.026000000000000002, -0.016, 1.004, 192.0, 0.0, 0.0, 0.0, 0.0, 0.0, 0.0, 0.0, 0.0, 0.0, 1.6945955269671972E9, 0.0, 2023-09-13 10:58:46.967
173.0, -131.85294054185636, 187500.0, 187500.0, 187500.0, 187500.0, 187500.0, 187500.0, 187500.0, 0.026000000000000002, -0.016, 1.004, 192.0, 0.0, 0.0, 0.0, 0.0, 0.0, 0.0, 0.0, 0.0, 0.0, 1.6945955269672196E9, 0.0, 2023-09-13 10:58:46.967
174.0, -168.6662636597471, 187500.0, 187500.0, 187500.0, 187500.0, 187500.0, 187500.0, 187500.0, 0.026000000000000002, -0.016, 1.004, 192.0, 0.0, 0.0, 0.0, 0.0, 0.0, 0.0, 0.0, 0.0, 0.0, 1.694595526967242E9, 0.0, 2023-09-13 10:58:46.967
175.0, -171.571990438937, 187500.0, 187500.0, 187500.0, 187500.0, 187500.0, 187500.0, 187500.0, 0.026000000000000002, -0.016, 1.004, 192.0, 0.0, 0.0, 0.0, 0.0, 0.0, 0.0, 0.0, 0.0, 0.0, 1.6945955269672947E9, 0.0, 2023-09-13 10:58:46.967
176.0, -132.07645798640942, 187500.0, 187500.0, 187500.0, 187500.0, 187500.0, 187500.0, 187500.0, 0.026000000000000002, -0.016, 1.004, 192.0, 0.0, 0.0, 0.0, 0.0, 0.0, 0.0, 0.0, 0.0, 0.0, 1.6945955269673176E9, 0.0, 2023-09-13 10:58:46.967
177.0, 15.959145541089242, 187500.0, 187500.0, 187500.0, 187500.0, 187500.0, 187500.0, 187500.0, 0.026000000000000002, -0.016, 1.004, 192.0, 0.0, 0.0, 0.0, 0.0, 0.0, 0.0, 0.0, 0.0, 0.0, 1.69459552696734E9, 0.0, 2023-09-13 10:58:46.967
178.0, 49.57616920187107, 187500.0, 187500.0, 187500.0, 187500.0, 187500.0, 187500.0, 187500.0, 0.032, -0.01, 1.002, 192.0, 1.0, 0.0, 255.0, 176.0, 31.0, 80.0, 0.0, 0.0, 0.0, 1.6945955269673626E9, 0.0, 2023-09-13 10:58:46.967
179.0, 42.53536969844934, 187500.0, 187500.0, 187500.0, 187500.0, 187500.0, 187500.0, 187500.0, 0.032, -0.01, 1.002, 192.0, 0.0, 0.0, 0.0, 0.0, 0.0, 0.0, 0.0, 0.0, 0.0, 1.694595526967386E9, 0.0, 2023-09-13 10:58:46.967
180.0, 4.269183190963649, 187500.0, 187500.0, 187500.0, 187500.0, 187500.0, 187500.0, 187500.0, 0.032, -0.01, 1.002, 192.0, 0.0, 0.0, 0.0, 0.0, 0.0, 0.0, 0.0, 0.0, 0.0, 1.6945955269674084E9, 0.0, 2023-09-13 10:58:46.967
181.0, -134.1998737096636, 187500.0, 187500.0, 187500.0, 187500.0, 187500.0, 187500.0, 187500.0, 0.032, -0.01, 1.002, 192.0, 0.0, 0.0, 0.0, 0.0, 0.0, 0.0, 0.0, 0.0, 0.0, 1.6945955269674308E9, 0.0, 2023-09-13 10:58:46.967
182.0, -162.92186533473318, 187500.0, 187500.0, 187500.0, 187500.0, 187500.0, 187500.0, 187500.0, 0.032, -0.01, 1.002, 192.0, 0.0, 0.0, 0.0, 0.0, 0.0, 0.0, 0.0, 0.0, 0.0, 1.6945955269674532E9, 0.0, 2023-09-13 10:58:46.967
183.0, -165.35820548036165, 187500.0, 187500.0, 187500.0, 187500.0, 187500.0, 187500.0, 187500.0, 0.032, -0.01, 1.002, 192.0, 0.0, 0.0, 0.0, 0.0, 0.0, 0.0, 0.0, 0.0, 0.0, 1.6945955269674757E9, 0.0, 2023-09-13 10:58:46.967
184.0, -131.89764403076697, 187500.0, 187500.0, 187500.0, 187500.0, 187500.0, 187500.0, 187500.0, 0.032, -0.01, 1.002, 192.0, 0.0, 0.0, 0.0, 0.0, 0.0, 0.0, 0.0, 0.0, 0.0, 1.694595526967498E9, 0.0, 2023-09-13 10:58:46.967
185.0, 7.443130903617252, 187500.0, 187500.0, 187500.0, 187500.0, 187500.0, 187500.0, 187500.0, 0.032, -0.01, 1.002, 192.0, 0.0, 0.0, 0.0, 0.0, 0.0, 0.0, 0.0, 0.0, 0.0, 1.6945955269675205E9, 0.0, 2023-09-13 10:58:46.967
186.0, 44.88230286625658, 187500.0, 187500.0, 187500.0, 187500.0, 187500.0, 187500.0, 187500.0, 0.032, -0.01, 1.002, 192.0, 0.0, 0.0, 0.0, 0.0, 0.0, 0.0, 0.0, 0.0, 0.0, 1.694595526967543E9, 0.0, 2023-09-13 10:58:46.967
187.0, 49.799686646424135, 187500.0, 187500.0, 187500.0, 187500.0, 187500.0, 187500.0, 187500.0, 0.032, -0.01, 1.002, 192.0, 0.0, 0.0, 0.0, 0.0, 0.0, 0.0, 0.0, 0.0, 0.0, 1.6945955269675653E9, 0.0, 2023-09-13 10:58:46.967
188.0, 10.594726871815547, 187500.0, 187500.0, 187500.0, 187500.0, 187500.0, 187500.0, 187500.0, 0.03, -0.012, 1.006, 192.0, 0.0, 240.0, 255.0, 160.0, 31.0, 112.0, 0.0, 0.0, 0.0, 1.6945955269675877E9, 0.0, 2023-09-13 10:58:46.967
189.0, -137.84320805587865, 187500.0, 187500.0, 187500.0, 187500.0, 187500.0, 187500.0, 187500.0, 0.03, -0.012, 1.006, 192.0, 0.0, 0.0, 0.0, 0.0, 0.0, 0.0, 0.0, 0.0, 0.0, 1.6945955269676113E9, 0.0, 2023-09-13 10:58:46.967
190.0, -170.9237898497331, 187500.0, 187500.0, 187500.0, 187500.0, 187500.0, 187500.0, 187500.0, 0.03, -0.012, 1.006, 192.0, 0.0, 0.0, 0.0, 0.0, 0.0, 0.0, 0.0, 0.0, 0.0, 1.6945955269895132E9, 0.0, 2023-09-13 10:58:46.989
191.0, -167.50397294807112, 187500.0, 187500.0, 187500.0, 187500.0, 187500.0, 187500.0, 187500.0, 0.03, -0.012, 1.006, 192.0, 0.0, 0.0, 0.0, 0.0, 0.0, 0.0, 0.0, 0.0, 0.0, 1.6945955269895694E9, 0.0, 2023-09-13 10:58:46.989
192.0, -126.93555676168882, 187500.0, 187500.0, 187500.0, 187500.0, 187500.0, 187500.0, 187500.0, 0.03, -0.012, 1.006, 192.0, 0.0, 0.0, 0.0, 0.0, 0.0, 0.0, 0.0, 0.0, 0.0, 1.6945955269896142E9, 0.0, 2023-09-13 10:58:46.989
193.0, 13.768674584469151, 187500.0, 187500.0, 187500.0, 187500.0, 187500.0, 187500.0, 187500.0, 0.03, -0.012, 1.006, 192.0, 0.0, 0.0, 0.0, 0.0, 0.0, 0.0, 0.0, 0.0, 0.0, 1.694595526989656E9, 0.0, 2023-09-13 10:58:46.989
194.0, 42.49066620953872, 187500.0, 187500.0, 187500.0, 187500.0, 187500.0, 187500.0, 187500.0, 0.03, -0.012, 1.006, 192.0, 0.0, 0.0, 0.0, 0.0, 0.0, 0.0, 0.0, 0.0, 0.0, 1.6945955269896982E9, 0.0, 2023-09-13 10:58:46.989
195.0, 41.753058642513594, 187500.0, 187500.0, 187500.0, 187500.0, 187500.0, 187500.0, 187500.0, 0.03, -0.012, 1.006, 192.0, 0.0, 0.0, 0.0, 0.0, 0.0, 0.0, 0.0, 0.0, 0.0, 1.6945955269897385E9, 0.0, 2023-09-13 10:58:46.989
196.0, 7.241965203519488, 187500.0, 187500.0, 187500.0, 187500.0, 187500.0, 187500.0, 187500.0, 0.03, -0.012, 1.006, 192.0, 0.0, 0.0, 0.0, 0.0, 0.0, 0.0, 0.0, 0.0, 0.0, 1.694595526989778E9, 0.0, 2023-09-13 10:58:46.989
197.0, -128.90251027375584, 187500.0, 187500.0, 187500.0, 187500.0, 187500.0, 187500.0, 187500.0, 0.03, -0.012, 1.006, 192.0, 0.0, 0.0, 0.0, 0.0, 0.0, 0.0, 0.0, 0.0, 0.0, 1.6945955269898167E9, 0.0, 2023-09-13 10:58:46.989
198.0, -164.62059791333652, 187500.0, 187500.0, 187500.0, 187500.0, 187500.0, 187500.0, 187500.0, 0.03, -0.016, 1.002, 192.0, 0.0, 240.0, 255.0, 128.0, 31.0, 80.0, 0.0, 0.0, 0.0, 1.6945955269898536E9, 0.0, 2023-09-13 10:58:46.989
199.0, -169.58268518241468, 187500.0, 187500.0, 187500.0, 187500.0, 187500.0, 187500.0, 187500.0, 0.03, -0.016, 1.002, 192.0, 0.0, 0.0, 0.0, 0.0, 0.0, 0.0, 0.0, 0.0, 0.0, 1.6945955269898942E9, 0.0, 2023-09-13 10:58:46.989
200.0, -135.02688825450997, 187500.0, 187500.0, 187500.0, 187500.0, 187500.0, 187500.0, 187500.0, 0.03, -0.016, 1.002, 192.0, 0.0, 0.0, 0.0, 0.0, 0.0, 0.0, 0.0, 0.0, 0.0, 1.6945955269899309E9, 0.0, 2023-09-13 10:58:46.989
201.0, 10.862947805279232, 187500.0, 187500.0, 187500.0, 187500.0, 187500.0, 187500.0, 187500.0, 0.03, -0.016, 1.002, 192.0, 0.0, 0.0, 0.0, 0.0, 0.0, 0.0, 0.0, 0.0, 0.0, 1.6945955269899657E9, 0.0, 2023-09-13 10:58:46.989
202.0, 49.41970699068391, 187500.0, 187500.0, 187500.0, 187500.0, 187500.0, 187500.0, 187500.0, 0.03, -0.016, 1.002, 192.0, 0.0, 0.0, 0.0, 0.0, 0.0, 0.0, 0.0, 0.0, 0.0, 1.694595526990003E9, 0.0, 2023-09-13 10:58:46.990
203.0, 48.145657556731415, 187500.0, 187500.0, 187500.0, 187500.0, 187500.0, 187500.0, 187500.0, 0.03, -0.016, 1.002, 192.0, 0.0, 0.0, 0.0, 0.0, 0.0, 0.0, 0.0, 0.0, 0.0, 1.6945955269900384E9, 0.0, 2023-09-13 10:58:46.990
204.0, 4.7832733134357115, 187500.0, 187500.0, 187500.0, 187500.0, 187500.0, 187500.0, 187500.0, 0.03, -0.016, 1.002, 192.0, 0.0, 0.0, 0.0, 0.0, 0.0, 0.0, 0.0, 0.0, 0.0, 1.6945955269900744E9, 0.0, 2023-09-13 10:58:46.990
205.0, -138.15613247825294, 187500.0, 187500.0, 187500.0, 187500.0, 187500.0, 187500.0, 187500.0, 0.03, -0.016, 1.002, 192.0, 0.0, 0.0, 0.0, 0.0, 0.0, 0.0, 0.0, 0.0, 0.0, 1.694595526990165E9, 0.0, 2023-09-13 10:58:46.990
206.0, -167.21340027015214, 187500.0, 187500.0, 187500.0, 187500.0, 187500.0, 187500.0, 187500.0, 0.03, -0.016, 1.002, 192.0, 0.0, 0.0, 0.0, 0.0, 0.0, 0.0, 0.0, 0.0, 0.0, 1.6945955269902012E9, 0.0, 2023-09-13 10:58:46.990
207.0, -162.81010661245665, 187500.0, 187500.0, 187500.0, 187500.0, 187500.0, 187500.0, 187500.0, 0.03, -0.016, 1.002, 192.0, 0.0, 0.0, 0.0, 0.0, 0.0, 0.0, 0.0, 0.0, 0.0, 1.6945955269902363E9, 0.0, 2023-09-13 10:58:46.990
208.0, -126.39911489476144, 187500.0, 187500.0, 187500.0, 187500.0, 187500.0, 187500.0, 187500.0, 0.026000000000000002, -0.01, 1.002, 192.0, 0.0, 208.0, 255.0, 176.0, 31.0, 80.0, 0.0, 0.0, 0.0, 1.694595526990274E9, 0.0, 2023-09-13 10:58:46.990
209.0, 9.074808248854668, 187500.0, 187500.0, 187500.0, 187500.0, 187500.0, 187500.0, 187500.0, 0.026000000000000002, -0.01, 1.002, 192.0, 0.0, 0.0, 0.0, 0.0, 0.0, 0.0, 0.0, 0.0, 0.0, 1.694595526990312E9, 0.0, 2023-09-13 10:58:46.990
210.0, 41.86481736479013, 187500.0, 187500.0, 187500.0, 187500.0, 187500.0, 187500.0, 187500.0, 0.026000000000000002, -0.01, 1.002, 192.0, 0.0, 0.0, 0.0, 0.0, 0.0, 0.0, 0.0, 0.0, 0.0, 1.6945955269903488E9, 0.0, 2023-09-13 10:58:46.990
211.0, 45.86577962229009, 187500.0, 187500.0, 187500.0, 187500.0, 187500.0, 187500.0, 187500.0, 0.026000000000000002, -0.01, 1.002, 192.0, 0.0, 0.0, 0.0, 0.0, 0.0, 0.0, 0.0, 0.0, 0.0, 1.6945955269903855E9, 0.0, 2023-09-13 10:58:46.990
212.0, 12.427569917150727, 187500.0, 187500.0, 187500.0, 187500.0, 187500.0, 187500.0, 187500.0, 0.026000000000000002, -0.01, 1.002, 192.0, 0.0, 0.0, 0.0, 0.0, 0.0, 0.0, 0.0, 0.0, 0.0, 1.694595526990422E9, 0.0, 2023-09-13 10:58:46.990
213.0, -132.8811207868005, 187500.0, 187500.0, 187500.0, 187500.0, 187500.0, 187500.0, 187500.0, 0.026000000000000002, -0.01, 1.002, 192.0, 0.0, 0.0, 0.0, 0.0, 0.0, 0.0, 0.0, 0.0, 0.0, 1.6945955269904585E9, 0.0, 2023-09-13 10:58:46.990
214.0, -169.89560960478897, 187500.0, 187500.0, 187500.0, 187500.0, 187500.0, 187500.0, 187500.0, 0.026000000000000002, -0.01, 1.002, 192.0, 0.0, 0.0, 0.0, 0.0, 0.0, 0.0, 0.0, 0.0, 0.0, 1.6945955269904945E9, 0.0, 2023-09-13 10:58:46.990
215.0, -169.9626648381549, 187500.0, 187500.0, 187500.0, 187500.0, 187500.0, 187500.0, 187500.0, 0.026000000000000002, -0.01, 1.002, 192.0, 0.0, 0.0, 0.0, 0.0, 0.0, 0.0, 0.0, 0.0, 0.0, 1.694595526990533E9, 0.0, 2023-09-13 10:58:46.990
216.0, -130.75770506354633, 187500.0, 187500.0, 187500.0, 187500.0, 187500.0, 187500.0, 187500.0, 0.026000000000000002, -0.01, 1.002, 192.0, 0.0, 0.0, 0.0, 0.0, 0.0, 0.0, 0.0, 0.0, 0.0, 1.6945955269905727E9, 0.0, 2023-09-13 10:58:46.990
217.0, 15.959145541089242, 187500.0, 187500.0, 187500.0, 187500.0, 187500.0, 187500.0, 187500.0, 0.026000000000000002, -0.01, 1.002, 192.0, 0.0, 0.0, 0.0, 0.0, 0.0, 0.0, 0.0, 0.0, 0.0, 1.6945955269906132E9, 0.0, 2023-09-13 10:58:46.990
218.0, 49.665576179692295, 187500.0, 187500.0, 187500.0, 187500.0, 187500.0, 187500.0, 187500.0, 0.026000000000000002, -0.012, 1.002, 192.0, 0.0, 208.0, 255.0, 160.0, 31.0, 80.0, 0.0, 0.0, 0.0, 1.6945955269906523E9, 0.0, 2023-09-13 10:58:46.990
219.0, 44.256454021507984, 187500.0, 187500.0, 187500.0, 187500.0, 187500.0, 187500.0, 187500.0, 0.026000000000000002, -0.012, 1.002, 192.0, 0.0, 0.0, 0.0, 0.0, 0.0, 0.0, 0.0, 0.0, 0.0, 1.6945955269906945E9, 0.0, 2023-09-13 10:58:46.990
220.0, 4.112720979776499, 187500.0, 187500.0, 187500.0, 187500.0, 187500.0, 187500.0, 187500.0, 0.026000000000000002, -0.012, 1.002, 192.0, 0.0, 0.0, 0.0, 0.0, 0.0, 0.0, 0.0, 0.0, 0.0, 1.6945955269907358E9, 0.0, 2023-09-13 10:58:46.990
221.0, -135.65273709925856, 187500.0, 187500.0, 187500.0, 187500.0, 187500.0, 187500.0, 187500.0, 0.026000000000000002, -0.012, 1.002, 192.0, 0.0, 0.0, 0.0, 0.0, 0.0, 0.0, 0.0, 0.0, 0.0, 1.6945955269908228E9, 0.0, 2023-09-13 10:58:46.990
222.0, -163.16773452374156, 187500.0, 187500.0, 187500.0, 187500.0, 187500.0, 187500.0, 187500.0, 0.026000000000000002, -0.012, 1.002, 192.0, 0.0, 0.0, 0.0, 0.0, 0.0, 0.0, 0.0, 0.0, 0.0, 1.694595526990859E9, 0.0, 2023-09-13 10:58:46.990
223.0, -164.0171008130432, 187500.0, 187500.0, 187500.0, 187500.0, 187500.0, 187500.0, 187500.0, 0.026000000000000002, -0.012, 1.002, 192.0, 0.0, 0.0, 0.0, 0.0, 0.0, 0.0, 0.0, 0.0, 0.0, 1.6945955269909067E9, 0.0, 2023-09-13 10:58:46.990
224.0, -133.50696963154908, 187500.0, 187500.0, 187500.0, 187500.0, 187500.0, 187500.0, 187500.0, 0.026000000000000002, -0.012, 1.002, 192.0, 0.0, 0.0, 0.0, 0.0, 0.0, 0.0, 0.0, 0.0, 0.0, 1.6945955269909434E9, 0.0, 2023-09-13 10:58:46.990
225.0, 7.286668692430102, 187500.0, 187500.0, 187500.0, 187500.0, 187500.0, 187500.0, 187500.0, 0.026000000000000002, -0.012, 1.002, 192.0, 0.0, 0.0, 0.0, 0.0, 0.0, 0.0, 0.0, 0.0, 0.0, 1.6945955274471018E9, 0.0, 2023-09-13 10:58:47.447
226.0, 45.843427877834785, 187500.0, 187500.0, 187500.0, 187500.0, 187500.0, 187500.0, 187500.0, 0.026000000000000002, -0.012, 1.002, 192.0, 0.0, 0.0, 0.0, 0.0, 0.0, 0.0, 0.0, 0.0, 0.0, 1.69459552744719E9, 0.0, 2023-09-13 10:58:47.447
227.0, 50.69375642463642, 187500.0, 187500.0, 187500.0, 187500.0, 187500.0, 187500.0, 187500.0, 0.026000000000000002, -0.012, 1.002, 192.0, 0.0, 0.0, 0.0, 0.0, 0.0, 0.0, 0.0, 0.0, 0.0, 1.6945955274472437E9, 0.0, 2023-09-13 10:58:47.447
228.0, 10.773540827458005, 187500.0, 187500.0, 187500.0, 187500.0, 187500.0, 187500.0, 187500.0, 0.028, -0.012, 1.002, 192.0, 0.0, 224.0, 255.0, 160.0, 31.0, 80.0, 0.0, 0.0, 0.0, 1.694595527447299E9, 0.0, 2023-09-13 10:58:47.447
229.0, -137.53028363350435, 187500.0, 187500.0, 187500.0, 187500.0, 187500.0, 187500.0, 187500.0, 0.028, -0.012, 1.002, 192.0, 0.0, 0.0, 0.0, 0.0, 0.0, 0.0, 0.0, 0.0, 0.0, 1.6945955274473517E9, 0.0, 2023-09-13 10:58:47.447
230.0, -172.01902532804314, 187500.0, 187500.0, 187500.0, 187500.0, 187500.0, 187500.0, 187500.0, 0.028, -0.012, 1.002, 192.0, 0.0, 0.0, 0.0, 0.0, 0.0, 0.0, 0.0, 0.0, 0.0, 1.6945955274474013E9, 0.0, 2023-09-13 10:58:47.447
231.0, -168.50980144855995, 187500.0, 187500.0, 187500.0, 187500.0, 187500.0, 187500.0, 187500.0, 0.028, -0.012, 1.002, 192.0, 0.0, 0.0, 0.0, 0.0, 0.0, 0.0, 0.0, 0.0, 0.0, 1.6945955274474468E9, 0.0, 2023-09-13 10:58:47.447
232.0, -126.42146663921675, 187500.0, 187500.0, 187500.0, 187500.0, 187500.0, 187500.0, 187500.0, 0.028, -0.012, 1.002, 192.0, 0.0, 0.0, 0.0, 0.0, 0.0, 0.0, 0.0, 0.0, 0.0, 1.69459552744749E9, 0.0, 2023-09-13 10:58:47.447
233.0, 14.796854829413276, 187500.0, 187500.0, 187500.0, 187500.0, 187500.0, 187500.0, 187500.0, 0.028, -0.012, 1.002, 192.0, 0.0, 0.0, 0.0, 0.0, 0.0, 0.0, 0.0, 0.0, 0.0, 1.6945955274475477E9, 0.0, 2023-09-13 10:58:47.447
234.0, 43.049459820921406, 187500.0, 187500.0, 187500.0, 187500.0, 187500.0, 187500.0, 187500.0, 0.028, -0.012, 1.002, 192.0, 0.0, 0.0, 0.0, 0.0, 0.0, 0.0, 0.0, 0.0, 0.0, 1.6945955274476063E9, 0.0, 2023-09-13 10:58:47.447
235.0, 41.44013422013929, 187500.0, 187500.0, 187500.0, 187500.0, 187500.0, 187500.0, 187500.0, 0.028, -0.012, 1.002, 192.0, 0.0, 0.0, 0.0, 0.0, 0.0, 0.0, 0.0, 0.0, 0.0, 1.6945955274476585E9, 0.0, 2023-09-13 10:58:47.447
236.0, 8.381904170740148, 187500.0, 187500.0, 187500.0, 187500.0, 187500.0, 187500.0, 187500.0, 0.028, -0.012, 1.002, 192.0, 0.0, 0.0, 0.0, 0.0, 0.0, 0.0, 0.0, 0.0, 0.0, 1.694595527447982E9, 0.0, 2023-09-13 10:58:47.447
237.0, -129.99774575206587, 187500.0, 187500.0, 187500.0, 187500.0, 187500.0, 187500.0, 187500.0, 0.028, -0.012, 1.002, 192.0, 0.0, 0.0, 0.0, 0.0, 0.0, 0.0, 0.0, 0.0, 0.0, 1.694595527448037E9, 0.0, 2023-09-13 10:58:47.448
238.0, -164.06180430195383, 187500.0, 187500.0, 187500.0, 187500.0, 187500.0, 187500.0, 187500.0, 0.03, -0.01, 1.0, 192.0, 0.0, 240.0, 255.0, 176.0, 31.0, 64.0, 0.0, 0.0, 0.0, 1.694595527448099E9, 0.0, 2023-09-13 10:58:47.448
239.0, -170.9014381052778, 187500.0, 187500.0, 187500.0, 187500.0, 187500.0, 187500.0, 187500.0, 0.03, -0.01, 1.0, 192.0, 0.0, 0.0, 0.0, 0.0, 0.0, 0.0, 0.0, 0.0, 0.0, 1.6945955274481697E9, 0.0, 2023-09-13 10:58:47.448
240.0, -135.04923999896528, 187500.0, 187500.0, 187500.0, 187500.0, 187500.0, 187500.0, 187500.0, 0.03, -0.01, 1.0, 192.0, 0.0, 0.0, 0.0, 0.0, 0.0, 0.0, 0.0, 0.0, 0.0, 1.6945955274482336E9, 0.0, 2023-09-13 10:58:47.448
241.0, 11.48879665002783, 187500.0, 187500.0, 187500.0, 187500.0, 187500.0, 187500.0, 187500.0, 0.03, -0.01, 1.0, 192.0, 0.0, 0.0, 0.0, 0.0, 0.0, 0.0, 0.0, 0.0, 0.0, 1.6945955274482949E9, 0.0, 2023-09-13 10:58:47.448
242.0, 51.051384335921334, 187500.0, 187500.0, 187500.0, 187500.0, 187500.0, 187500.0, 187500.0, 0.03, -0.01, 1.0, 192.0, 0.0, 0.0, 0.0, 0.0, 0.0, 0.0, 0.0, 0.0, 0.0, 1.694595527448358E9, 0.0, 2023-09-13 10:58:47.448
243.0, 49.01737559048839, 187500.0, 187500.0, 187500.0, 187500.0, 187500.0, 187500.0, 187500.0, 0.03, -0.01, 1.0, 192.0, 0.0, 0.0, 0.0, 0.0, 0.0, 0.0, 0.0, 0.0, 0.0, 1.6945955274484205E9, 0.0, 2023-09-13 10:58:47.448
244.0, 5.565584369371458, 187500.0, 187500.0, 187500.0, 187500.0, 187500.0, 187500.0, 187500.0, 0.03, -0.01, 1.0, 192.0, 0.0, 0.0, 0.0, 0.0, 0.0, 0.0, 0.0, 0.0, 0.0, 1.6945955274484725E9, 0.0, 2023-09-13 10:58:47.448
245.0, -138.67022260072503, 187500.0, 187500.0, 187500.0, 187500.0, 187500.0, 187500.0, 187500.0, 0.03, -0.01, 1.0, 192.0, 0.0, 0.0, 0.0, 0.0, 0.0, 0.0, 0.0, 0.0, 0.0, 1.6945955274485195E9, 0.0, 2023-09-13 10:58:47.448
246.0, -167.54867643698174, 187500.0, 187500.0, 187500.0, 187500.0, 187500.0, 187500.0, 187500.0, 0.03, -0.01, 1.0, 192.0, 0.0, 0.0, 0.0, 0.0, 0.0, 0.0, 0.0, 0.0, 0.0, 1.6945955274485636E9, 0.0, 2023-09-13 10:58:47.448
247.0, -164.10650779086444, 187500.0, 187500.0, 187500.0, 187500.0, 187500.0, 187500.0, 187500.0, 0.03, -0.01, 1.0, 192.0, 0.0, 0.0, 0.0, 0.0, 0.0, 0.0, 0.0, 0.0, 0.0, 1.6945955274486065E9, 0.0, 2023-09-13 10:58:47.448
248.0, -126.6002805948592, 187500.0, 187500.0, 187500.0, 187500.0, 187500.0, 187500.0, 187500.0, 0.034, -0.01, 1.002, 192.0, 1.0, 16.0, 255.0, 176.0, 31.0, 80.0, 0.0, 0.0, 0.0, 1.6945955274486527E9, 0.0, 2023-09-13 10:58:47.448
249.0, 10.594726871815547, 187500.0, 187500.0, 187500.0, 187500.0, 187500.0, 187500.0, 187500.0, 0.034, -0.01, 1.002, 192.0, 0.0, 0.0, 0.0, 0.0, 0.0, 0.0, 0.0, 0.0, 0.0, 1.694595527448701E9, 0.0, 2023-09-13 10:58:47.448
250.0, 41.082506308854384, 187500.0, 187500.0, 187500.0, 187500.0, 187500.0, 187500.0, 187500.0, 0.034, -0.01, 1.002, 192.0, 0.0, 0.0, 0.0, 0.0, 0.0, 0.0, 0.0, 0.0, 0.0, 1.6945955274487488E9, 0.0, 2023-09-13 10:58:47.448
251.0, 46.625738933770535, 187500.0, 187500.0, 187500.0, 187500.0, 187500.0, 187500.0, 187500.0, 0.034, -0.01, 1.002, 192.0, 0.0, 0.0, 0.0, 0.0, 0.0, 0.0, 0.0, 0.0, 0.0, 1.6945955274488633E9, 0.0, 2023-09-13 10:58:47.448
252.0, 12.0252385169552, 187500.0, 187500.0, 187500.0, 187500.0, 187500.0, 187500.0, 187500.0, 0.034, -0.01, 1.002, 192.0, 0.0, 0.0, 0.0, 0.0, 0.0, 0.0, 0.0, 0.0, 0.0, 1.6945955274489076E9, 0.0, 2023-09-13 10:58:47.448
253.0, -130.7130015746357, 187500.0, 187500.0, 187500.0, 187500.0, 187500.0, 187500.0, 187500.0, 0.034, -0.01, 1.002, 192.0, 0.0, 0.0, 0.0, 0.0, 0.0, 0.0, 0.0, 0.0, 0.0, 1.6945955274489515E9, 0.0, 2023-09-13 10:58:47.448
254.0, -169.6273886713253, 187500.0, 187500.0, 187500.0, 187500.0, 187500.0, 187500.0, 187500.0, 0.034, -0.01, 1.002, 192.0, 0.0, 0.0, 0.0, 0.0, 0.0, 0.0, 0.0, 0.0, 0.0, 1.694595527448995E9, 0.0, 2023-09-13 10:58:47.448
255.0, -171.5049352055711, 187500.0, 187500.0, 187500.0, 187500.0, 187500.0, 187500.0, 187500.0, 0.034, -0.01, 1.002, 192.0, 0.0, 0.0, 0.0, 0.0, 0.0, 0.0, 0.0, 0.0, 0.0, 1.6945955274490392E9, 0.0, 2023-09-13 10:58:47.449
0.0, -131.27179518601838, 187500.0, 187500.0, 187500.0, 187500.0, 187500.0, 187500.0, 187500.0, 0.034, -0.01, 1.002, 192.0, 0.0, 0.0, 0.0, 0.0, 0.0, 0.0, 0.0, 0.0, 0.0, 1.694595527449083E9, 0.0, 2023-09-13 10:58:47.449
1.0, 16.36147694128477, 187500.0, 187500.0, 187500.0, 187500.0, 187500.0, 187500.0, 187500.0, 0.034, -0.01, 1.002, 192.0, 0.0, 0.0, 0.0, 0.0, 0.0, 0.0, 0.0, 0.0, 0.0, 1.6945955274491265E9, 0.0, 2023-09-13 10:58:47.449
2.0, 48.749154657024704, 187500.0, 187500.0, 187500.0, 187500.0, 187500.0, 187500.0, 187500.0, 0.026000000000000002, -0.014, 1.01, 192.0, 0.0, 208.0, 255.0, 144.0, 31.0, 144.0, 0.0, 0.0, 0.0, 1.6945955274491727E9, 0.0, 2023-09-13 10:58:47.449
3.0, 42.46831446508342, 187500.0, 187500.0, 187500.0, 187500.0, 187500.0, 187500.0, 187500.0, 0.026000000000000002, -0.014, 1.01, 192.0, 0.0, 0.0, 0.0, 0.0, 0.0, 0.0, 0.0, 0.0, 0.0, 1.6945955274492211E9, 0.0, 2023-09-13 10:58:47.449
4.0, 5.185604713631238, 187500.0, 187500.0, 187500.0, 187500.0, 187500.0, 187500.0, 187500.0, 0.026000000000000002, -0.014, 1.01, 192.0, 0.0, 0.0, 0.0, 0.0, 0.0, 0.0, 0.0, 0.0, 0.0, 1.6945955274492648E9, 0.0, 2023-09-13 10:58:47.449
5.0, -134.17752196520829, 187500.0, 187500.0, 187500.0, 187500.0, 187500.0, 187500.0, 187500.0, 0.026000000000000002, -0.014, 1.01, 192.0, 0.0, 0.0, 0.0, 0.0, 0.0, 0.0, 0.0, 0.0, 0.0, 1.6945955274493089E9, 0.0, 2023-09-13 10:58:47.449
6.0, -161.7372228786019, 187500.0, 187500.0, 187500.0, 187500.0, 187500.0, 187500.0, 187500.0, 0.026000000000000002, -0.014, 1.01, 192.0, 0.0, 0.0, 0.0, 0.0, 0.0, 0.0, 0.0, 0.0, 0.0, 1.6945955274493525E9, 0.0, 2023-09-13 10:58:47.449
7.0, -162.87716184582257, 187500.0, 187500.0, 187500.0, 187500.0, 187500.0, 187500.0, 187500.0, 0.026000000000000002, -0.014, 1.01, 192.0, 0.0, 0.0, 0.0, 0.0, 0.0, 0.0, 0.0, 0.0, 0.0, 1.694595527449396E9, 0.0, 2023-09-13 10:58:47.449
8.0, -132.5234928755156, 187500.0, 187500.0, 187500.0, 187500.0, 187500.0, 187500.0, 187500.0, 0.026000000000000002, -0.014, 1.01, 192.0, 0.0, 0.0, 0.0, 0.0, 0.0, 0.0, 0.0, 0.0, 0.0, 1.6945955274494395E9, 0.0, 2023-09-13 10:58:47.449
9.0, 7.063151247877032, 187500.0, 187500.0, 187500.0, 187500.0, 187500.0, 187500.0, 187500.0, 0.026000000000000002, -0.014, 1.01, 192.0, 0.0, 0.0, 0.0, 0.0, 0.0, 0.0, 0.0, 0.0, 0.0, 1.6945955274494832E9, 0.0, 2023-09-13 10:58:47.449
10.0, 45.239930777541495, 187500.0, 187500.0, 187500.0, 187500.0, 187500.0, 187500.0, 187500.0, 0.026000000000000002, -0.014, 1.01, 192.0, 0.0, 0.0, 0.0, 0.0, 0.0, 0.0, 0.0, 0.0, 0.0, 1.6945955274495263E9, 0.0, 2023-09-13 10:58:47.449
11.0, 50.13496281325374, 187500.0, 187500.0, 187500.0, 187500.0, 187500.0, 187500.0, 187500.0, 0.024, -0.016, 1.01, 192.0, 0.0, 192.0, 255.0, 128.0, 31.0, 144.0, 0.0, 0.0, 0.0, 1.6945955274496205E9, 0.0, 2023-09-13 10:58:47.449
12.0, 12.360514683784805, 187500.0, 187500.0, 187500.0, 187500.0, 187500.0, 187500.0, 187500.0, 0.024, -0.016, 1.01, 192.0, 0.0, 0.0, 0.0, 0.0, 0.0, 0.0, 0.0, 0.0, 0.0, 1.6945955274496677E9, 0.0, 2023-09-13 10:58:47.449
13.0, -136.85973129984515, 187500.0, 187500.0, 187500.0, 187500.0, 187500.0, 187500.0, 187500.0, 0.024, -0.016, 1.01, 192.0, 0.0, 0.0, 0.0, 0.0, 0.0, 0.0, 0.0, 0.0, 0.0, 1.6945955274497113E9, 0.0, 2023-09-13 10:58:47.449
14.0, -171.12495554983087, 187500.0, 187500.0, 187500.0, 187500.0, 187500.0, 187500.0, 187500.0, 0.024, -0.016, 1.01, 192.0, 0.0, 0.0, 0.0, 0.0, 0.0, 0.0, 0.0, 0.0, 0.0, 1.6945955274497573E9, 0.0, 2023-09-13 10:58:47.449
