%OpenBCI Raw EXG Data
%Number of channels = 8
%Sample Rate = 250 Hz
%Board = OpenBCI_GUI$BoardCytonSerial
Sample Index, EXG Channel 0, EXG Channel 1, EXG Channel 2, EXG Channel 3, EXG Channel 4, EXG Channel 5, EXG Channel 6, EXG Channel 7, Accel Channel 0, Accel Channel 1, Accel Channel 2, Other, Other, Other, Other, Other, Other, Other, Analog Channel 0, Analog Channel 1, Analog Channel 2, Timestamp, Other, Timestamp (Formatted)
0.0, 0.0, 0.0, 0.0, 0.0, 0.0, 0.0, 0.0, 0.0, 0.036000000000000004, -0.006, 1.002, 192.0, 1.0, 32.0, 255.0, 208.0, 31.0, 80.0, 0.0, 0.0, 0.0, 1.6946009425436418E9, 0.0, 2023-09-13 12:29:02.543
1.0, -17.009677530488673, 187500.0, 187500.0, 187500.0, 187500.0, 187500.0, 187500.0, 187500.0, 0.036000000000000004, -0.006, 1.002, 192.0, 0.0, 0.0, 0.0, 0.0, 0.0, 0.0, 0.0, 0.0, 0.0, 1.694600943028489E9, 0.0, 2023-09-13 12:29:03.028
2.0, -12.338162939329498, 187500.0, 187500.0, 187500.0, 187500.0, 187500.0, 187500.0, 187500.0, 0.036000000000000004, -0.006, 1.002, 192.0, 0.0, 0.0, 0.0, 0.0, 0.0, 0.0, 0.0, 0.0, 0.0, 1.6946009430286193E9, 0.0, 2023-09-13 12:29:03.028
3.0, -12.494625150516647, 187500.0, 187500.0, 187500.0, 187500.0, 187500.0, 187500.0, 187500.0, 0.036000000000000004, -0.006, 1.002, 192.0, 0.0, 0.0, 0.0, 0.0, 0.0, 0.0, 0.0, 0.0, 0.0, 1.6946009430286925E9, 0.0, 2023-09-13 12:29:03.028
4.0, -17.65787811969258, 187500.0, 187500.0, 187500.0, 187500.0, 187500.0, 187500.0, 187500.0, 0.036000000000000004, -0.006, 1.002, 192.0, 0.0, 0.0, 0.0, 0.0, 0.0, 0.0, 0.0, 0.0, 0.0, 1.694600943028736E9, 0.0, 2023-09-13 12:29:03.028
5.0, -37.81915161837955, 187500.0, 187500.0, 187500.0, 187500.0, 187500.0, 187500.0, 187500.0, 0.036000000000000004, -0.006, 1.002, 192.0, 0.0, 0.0, 0.0, 0.0, 0.0, 0.0, 0.0, 0.0, 0.0, 1.6946009430287883E9, 0.0, 2023-09-13 12:29:03.028
6.0, -42.17774178716443, 187500.0, 187500.0, 187500.0, 187500.0, 187500.0, 187500.0, 187500.0, 0.036000000000000004, -0.006, 1.002, 192.0, 0.0, 0.0, 0.0, 0.0, 0.0, 0.0, 0.0, 0.0, 0.0, 1.69460094302882E9, 0.0, 2023-09-13 12:29:03.028
7.0, -42.4236109761728, 187500.0, 187500.0, 187500.0, 187500.0, 187500.0, 187500.0, 187500.0, 0.036000000000000004, -0.006, 1.002, 192.0, 0.0, 0.0, 0.0, 0.0, 0.0, 0.0, 0.0, 0.0, 0.0, 1.6946009430288484E9, 0.0, 2023-09-13 12:29:03.028
8.0, -37.3497649848181, 187500.0, 187500.0, 187500.0, 187500.0, 187500.0, 187500.0, 187500.0, 0.028, -0.006, 1.008, 192.0, 0.0, 224.0, 255.0, 208.0, 31.0, 128.0, 0.0, 0.0, 0.0, 1.6946009430288785E9, 0.0, 2023-09-13 12:29:03.028
9.0, -17.03202927494398, 187500.0, 187500.0, 187500.0, 187500.0, 187500.0, 187500.0, 187500.0, 0.028, -0.006, 1.008, 192.0, 0.0, 0.0, 0.0, 0.0, 0.0, 0.0, 0.0, 0.0, 0.0, 1.694600943028908E9, 0.0, 2023-09-13 12:29:03.028
10.0, -12.315811194874192, 187500.0, 187500.0, 187500.0, 187500.0, 187500.0, 187500.0, 187500.0, 0.028, -0.006, 1.008, 192.0, 0.0, 0.0, 0.0, 0.0, 0.0, 0.0, 0.0, 0.0, 0.0, 1.6946009430289352E9, 0.0, 2023-09-13 12:29:03.028
11.0, -12.427569917150727, 187500.0, 187500.0, 187500.0, 187500.0, 187500.0, 187500.0, 187500.0, 0.028, -0.006, 1.008, 192.0, 0.0, 0.0, 0.0, 0.0, 0.0, 0.0, 0.0, 0.0, 0.0, 1.6946009430289612E9, 0.0, 2023-09-13 12:29:03.028
12.0, -17.926099053156264, 187500.0, 187500.0, 187500.0, 187500.0, 187500.0, 187500.0, 187500.0, 0.028, -0.006, 1.008, 192.0, 0.0, 0.0, 0.0, 0.0, 0.0, 0.0, 0.0, 0.0, 0.0, 1.6946009430289876E9, 0.0, 2023-09-13 12:29:03.028
13.0, -37.81915161837955, 187500.0, 187500.0, 187500.0, 187500.0, 187500.0, 187500.0, 187500.0, 0.028, -0.006, 1.008, 192.0, 0.0, 0.0, 0.0, 0.0, 0.0, 0.0, 0.0, 0.0, 0.0, 1.6946009430290148E9, 0.0, 2023-09-13 12:29:03.029
14.0, -42.53536969844934, 187500.0, 187500.0, 187500.0, 187500.0, 187500.0, 187500.0, 187500.0, 0.028, -0.006, 1.008, 192.0, 0.0, 0.0, 0.0, 0.0, 0.0, 0.0, 0.0, 0.0, 0.0, 1.6946009430290425E9, 0.0, 2023-09-13 12:29:03.029
15.0, -42.51301795399403, 187500.0, 187500.0, 187500.0, 187500.0, 187500.0, 187500.0, 187500.0, 0.028, -0.006, 1.008, 192.0, 0.0, 0.0, 0.0, 0.0, 0.0, 0.0, 0.0, 0.0, 0.0, 1.6946009430290706E9, 0.0, 2023-09-13 12:29:03.029
16.0, -37.260358006996874, 187500.0, 187500.0, 187500.0, 187500.0, 187500.0, 187500.0, 187500.0, 0.028, -0.006, 1.008, 192.0, 0.0, 0.0, 0.0, 0.0, 0.0, 0.0, 0.0, 0.0, 0.0, 1.6946009430297413E9, 0.0, 2023-09-13 12:29:03.029
17.0, -17.18849148613113, 187500.0, 187500.0, 187500.0, 187500.0, 187500.0, 187500.0, 187500.0, 0.028, -0.006, 1.008, 192.0, 0.0, 0.0, 0.0, 0.0, 0.0, 0.0, 0.0, 0.0, 0.0, 1.694600943029768E9, 0.0, 2023-09-13 12:29:03.029
18.0, -12.360514683784805, 187500.0, 187500.0, 187500.0, 187500.0, 187500.0, 187500.0, 187500.0, 0.028, -0.004, 1.006, 192.0, 0.0, 224.0, 255.0, 224.0, 31.0, 112.0, 0.0, 0.0, 0.0, 1.6946009430297925E9, 0.0, 2023-09-13 12:29:03.029
19.0, -12.271107705963578, 187500.0, 187500.0, 187500.0, 187500.0, 187500.0, 187500.0, 187500.0, 0.028, -0.004, 1.006, 192.0, 0.0, 0.0, 0.0, 0.0, 0.0, 0.0, 0.0, 0.0, 0.0, 1.6946009430298188E9, 0.0, 2023-09-13 12:29:03.029
20.0, -17.903747308700957, 187500.0, 187500.0, 187500.0, 187500.0, 187500.0, 187500.0, 187500.0, 0.028, -0.004, 1.006, 192.0, 0.0, 0.0, 0.0, 0.0, 0.0, 0.0, 0.0, 0.0, 0.0, 1.694600943029843E9, 0.0, 2023-09-13 12:29:03.029
21.0, -38.13207604075385, 187500.0, 187500.0, 187500.0, 187500.0, 187500.0, 187500.0, 187500.0, 0.028, -0.004, 1.006, 192.0, 0.0, 0.0, 0.0, 0.0, 0.0, 0.0, 0.0, 0.0, 0.0, 1.694600943029867E9, 0.0, 2023-09-13 12:29:03.029
22.0, -42.736535398547105, 187500.0, 187500.0, 187500.0, 187500.0, 187500.0, 187500.0, 187500.0, 0.028, -0.004, 1.006, 192.0, 0.0, 0.0, 0.0, 0.0, 0.0, 0.0, 0.0, 0.0, 0.0, 1.694600943029895E9, 0.0, 2023-09-13 12:29:03.029
23.0, -42.44596272062811, 187500.0, 187500.0, 187500.0, 187500.0, 187500.0, 187500.0, 187500.0, 0.028, -0.004, 1.006, 192.0, 0.0, 0.0, 0.0, 0.0, 0.0, 0.0, 0.0, 0.0, 0.0, 1.694600943029932E9, 0.0, 2023-09-13 12:29:03.029
24.0, -37.23800626254157, 187500.0, 187500.0, 187500.0, 187500.0, 187500.0, 187500.0, 187500.0, 0.028, -0.004, 1.006, 192.0, 0.0, 0.0, 0.0, 0.0, 0.0, 0.0, 0.0, 0.0, 0.0, 1.69460094302996E9, 0.0, 2023-09-13 12:29:03.029
25.0, -17.12143625276521, 187500.0, 187500.0, 187500.0, 187500.0, 187500.0, 187500.0, 187500.0, 0.028, -0.004, 1.006, 192.0, 0.0, 0.0, 0.0, 0.0, 0.0, 0.0, 0.0, 0.0, 0.0, 1.694600943029988E9, 0.0, 2023-09-13 12:29:03.029
26.0, -12.204052472597656, 187500.0, 187500.0, 187500.0, 187500.0, 187500.0, 187500.0, 187500.0, 0.028, -0.004, 1.006, 192.0, 0.0, 0.0, 0.0, 0.0, 0.0, 0.0, 0.0, 0.0, 0.0, 1.6946009430300145E9, 0.0, 2023-09-13 12:29:03.030
27.0, -12.427569917150727, 187500.0, 187500.0, 187500.0, 187500.0, 187500.0, 187500.0, 187500.0, 0.03, -0.004, 1.006, 192.0, 0.0, 240.0, 255.0, 224.0, 31.0, 112.0, 0.0, 0.0, 0.0, 1.6946009430300403E9, 0.0, 2023-09-13 12:29:03.030
28.0, -17.903747308700957, 187500.0, 187500.0, 187500.0, 187500.0, 187500.0, 187500.0, 187500.0, 0.03, -0.004, 1.006, 192.0, 0.0, 0.0, 0.0, 0.0, 0.0, 0.0, 0.0, 0.0, 0.0, 1.6946009430300689E9, 0.0, 2023-09-13 12:29:03.030
29.0, -37.930910340656084, 187500.0, 187500.0, 187500.0, 187500.0, 187500.0, 187500.0, 187500.0, 0.03, -0.004, 1.006, 192.0, 0.0, 0.0, 0.0, 0.0, 0.0, 0.0, 0.0, 0.0, 0.0, 1.6946009430300949E9, 0.0, 2023-09-13 12:29:03.030
30.0, -42.44596272062811, 187500.0, 187500.0, 187500.0, 187500.0, 187500.0, 187500.0, 187500.0, 0.03, -0.004, 1.006, 192.0, 0.0, 0.0, 0.0, 0.0, 0.0, 0.0, 0.0, 0.0, 0.0, 1.6946009430301218E9, 0.0, 2023-09-13 12:29:03.030
31.0, -42.58007318735996, 187500.0, 187500.0, 187500.0, 187500.0, 187500.0, 187500.0, 187500.0, 0.03, -0.004, 1.006, 192.0, 0.0, 0.0, 0.0, 0.0, 0.0, 0.0, 0.0, 0.0, 0.0, 1.694600943030435E9, 0.0, 2023-09-13 12:29:03.030
32.0, -37.79679987392424, 187500.0, 187500.0, 187500.0, 187500.0, 187500.0, 187500.0, 187500.0, 0.03, -0.004, 1.006, 192.0, 0.0, 0.0, 0.0, 0.0, 0.0, 0.0, 0.0, 0.0, 0.0, 1.6946009430304615E9, 0.0, 2023-09-13 12:29:03.030
33.0, -17.456712419594815, 187500.0, 187500.0, 187500.0, 187500.0, 187500.0, 187500.0, 187500.0, 0.03, -0.004, 1.006, 192.0, 0.0, 0.0, 0.0, 0.0, 0.0, 0.0, 0.0, 0.0, 0.0, 1.6946009430304863E9, 0.0, 2023-09-13 12:29:03.030
34.0, -12.159348983687043, 187500.0, 187500.0, 187500.0, 187500.0, 187500.0, 187500.0, 187500.0, 0.03, -0.004, 1.006, 192.0, 0.0, 0.0, 0.0, 0.0, 0.0, 0.0, 0.0, 0.0, 0.0, 1.6946009430305104E9, 0.0, 2023-09-13 12:29:03.030
35.0, -12.226404217052963, 187500.0, 187500.0, 187500.0, 187500.0, 187500.0, 187500.0, 187500.0, 0.03, -0.004, 1.006, 192.0, 0.0, 0.0, 0.0, 0.0, 0.0, 0.0, 0.0, 0.0, 0.0, 1.6946009430305345E9, 0.0, 2023-09-13 12:29:03.030
36.0, -17.613174630781966, 187500.0, 187500.0, 187500.0, 187500.0, 187500.0, 187500.0, 187500.0, 0.03, -0.004, 1.006, 192.0, 0.0, 0.0, 0.0, 0.0, 0.0, 0.0, 0.0, 0.0, 0.0, 1.694600943030561E9, 0.0, 2023-09-13 12:29:03.030
37.0, -37.930910340656084, 187500.0, 187500.0, 187500.0, 187500.0, 187500.0, 187500.0, 187500.0, 0.036000000000000004, -0.004, 1.002, 192.0, 1.0, 32.0, 255.0, 224.0, 31.0, 80.0, 0.0, 0.0, 0.0, 1.694600943030588E9, 0.0, 2023-09-13 12:29:03.030
38.0, -42.55772144290465, 187500.0, 187500.0, 187500.0, 187500.0, 187500.0, 187500.0, 187500.0, 0.036000000000000004, -0.004, 1.002, 192.0, 0.0, 0.0, 0.0, 0.0, 0.0, 0.0, 0.0, 0.0, 0.0, 1.6946009430306165E9, 0.0, 2023-09-13 12:29:03.030
39.0, -42.49066620953872, 187500.0, 187500.0, 187500.0, 187500.0, 187500.0, 187500.0, 187500.0, 0.036000000000000004, -0.004, 1.002, 192.0, 0.0, 0.0, 0.0, 0.0, 0.0, 0.0, 0.0, 0.0, 0.0, 1.6946009430306456E9, 0.0, 2023-09-13 12:29:03.030
40.0, -37.48387545154994, 187500.0, 187500.0, 187500.0, 187500.0, 187500.0, 187500.0, 187500.0, 0.036000000000000004, -0.004, 1.002, 192.0, 0.0, 0.0, 0.0, 0.0, 0.0, 0.0, 0.0, 0.0, 0.0, 1.6946009430306728E9, 0.0, 2023-09-13 12:29:03.030
41.0, -17.099084508309904, 187500.0, 187500.0, 187500.0, 187500.0, 187500.0, 187500.0, 187500.0, 0.036000000000000004, -0.004, 1.002, 192.0, 0.0, 0.0, 0.0, 0.0, 0.0, 0.0, 0.0, 0.0, 0.0, 1.6946009430306976E9, 0.0, 2023-09-13 12:29:03.030
42.0, -12.226404217052963, 187500.0, 187500.0, 187500.0, 187500.0, 187500.0, 187500.0, 187500.0, 0.036000000000000004, -0.004, 1.002, 192.0, 0.0, 0.0, 0.0, 0.0, 0.0, 0.0, 0.0, 0.0, 0.0, 1.694600943030722E9, 0.0, 2023-09-13 12:29:03.030
43.0, -12.159348983687043, 187500.0, 187500.0, 187500.0, 187500.0, 187500.0, 187500.0, 187500.0, 0.036000000000000004, -0.004, 1.002, 192.0, 0.0, 0.0, 0.0, 0.0, 0.0, 0.0, 0.0, 0.0, 0.0, 1.6946009430307472E9, 0.0, 2023-09-13 12:29:03.030
44.0, -17.456712419594815, 187500.0, 187500.0, 187500.0, 187500.0, 187500.0, 187500.0, 187500.0, 0.036000000000000004, -0.004, 1.002, 192.0, 0.0, 0.0, 0.0, 0.0, 0.0, 0.0, 0.0, 0.0, 0.0, 1.6946009430307813E9, 0.0, 2023-09-13 12:29:03.030
45.0, -37.86385510729016, 187500.0, 187500.0, 187500.0, 187500.0, 187500.0, 187500.0, 187500.0, 0.036000000000000004, -0.004, 1.002, 192.0, 0.0, 0.0, 0.0, 0.0, 0.0, 0.0, 0.0, 0.0, 0.0, 1.6946009430308092E9, 0.0, 2023-09-13 12:29:03.030
46.0, -42.53536969844934, 187500.0, 187500.0, 187500.0, 187500.0, 187500.0, 187500.0, 187500.0, 0.036000000000000004, -0.004, 1.002, 192.0, 0.0, 0.0, 0.0, 0.0, 0.0, 0.0, 0.0, 0.0, 0.0, 1.6946009430308344E9, 0.0, 2023-09-13 12:29:03.030
47.0, -42.334203998351576, 187500.0, 187500.0, 187500.0, 187500.0, 187500.0, 187500.0, 187500.0, 0.028, -0.006, 1.006, 192.0, 0.0, 224.0, 255.0, 208.0, 31.0, 112.0, 0.0, 0.0, 0.0, 1.6946009430309384E9, 0.0, 2023-09-13 12:29:03.030
48.0, -37.30506149590749, 187500.0, 187500.0, 187500.0, 187500.0, 187500.0, 187500.0, 187500.0, 0.028, -0.006, 1.006, 192.0, 0.0, 0.0, 0.0, 0.0, 0.0, 0.0, 0.0, 0.0, 0.0, 1.694600943030967E9, 0.0, 2023-09-13 12:29:03.030
49.0, -16.696753108114375, 187500.0, 187500.0, 187500.0, 187500.0, 187500.0, 187500.0, 187500.0, 0.028, -0.006, 1.006, 192.0, 0.0, 0.0, 0.0, 0.0, 0.0, 0.0, 0.0, 0.0, 0.0, 1.694600943030992E9, 0.0, 2023-09-13 12:29:03.030
50.0, -12.226404217052963, 187500.0, 187500.0, 187500.0, 187500.0, 187500.0, 187500.0, 187500.0, 0.028, -0.006, 1.006, 192.0, 0.0, 0.0, 0.0, 0.0, 0.0, 0.0, 0.0, 0.0, 0.0, 1.694600943031017E9, 0.0, 2023-09-13 12:29:03.031
51.0, -12.449921661606034, 187500.0, 187500.0, 187500.0, 187500.0, 187500.0, 187500.0, 187500.0, 0.028, -0.006, 1.006, 192.0, 0.0, 0.0, 0.0, 0.0, 0.0, 0.0, 0.0, 0.0, 0.0, 1.6946009430310447E9, 0.0, 2023-09-13 12:29:03.031
52.0, -17.926099053156264, 187500.0, 187500.0, 187500.0, 187500.0, 187500.0, 187500.0, 187500.0, 0.028, -0.006, 1.006, 192.0, 0.0, 0.0, 0.0, 0.0, 0.0, 0.0, 0.0, 0.0, 0.0, 1.6946009430310695E9, 0.0, 2023-09-13 12:29:03.031
53.0, -38.13207604075385, 187500.0, 187500.0, 187500.0, 187500.0, 187500.0, 187500.0, 187500.0, 0.028, -0.006, 1.006, 192.0, 0.0, 0.0, 0.0, 0.0, 0.0, 0.0, 0.0, 0.0, 0.0, 1.694600943031096E9, 0.0, 2023-09-13 12:29:03.031
54.0, -42.49066620953872, 187500.0, 187500.0, 187500.0, 187500.0, 187500.0, 187500.0, 187500.0, 0.028, -0.006, 1.006, 192.0, 0.0, 0.0, 0.0, 0.0, 0.0, 0.0, 0.0, 0.0, 0.0, 1.6946009430311215E9, 0.0, 2023-09-13 12:29:03.031
55.0, -42.200093531619736, 187500.0, 187500.0, 187500.0, 187500.0, 187500.0, 187500.0, 187500.0, 0.028, -0.006, 1.006, 192.0, 0.0, 0.0, 0.0, 0.0, 0.0, 0.0, 0.0, 0.0, 0.0, 1.694600943031147E9, 0.0, 2023-09-13 12:29:03.031
56.0, -37.37211672927341, 187500.0, 187500.0, 187500.0, 187500.0, 187500.0, 187500.0, 187500.0, 0.028, -0.006, 1.006, 192.0, 0.0, 0.0, 0.0, 0.0, 0.0, 0.0, 0.0, 0.0, 0.0, 1.694600943031174E9, 0.0, 2023-09-13 12:29:03.031
57.0, -17.300250208407668, 187500.0, 187500.0, 187500.0, 187500.0, 187500.0, 187500.0, 187500.0, 0.026000000000000002, -0.006, 1.004, 192.0, 0.0, 208.0, 255.0, 208.0, 31.0, 96.0, 0.0, 0.0, 0.0, 1.694600943031199E9, 0.0, 2023-09-13 12:29:03.031
58.0, -11.935831539133972, 187500.0, 187500.0, 187500.0, 187500.0, 187500.0, 187500.0, 187500.0, 0.026000000000000002, -0.006, 1.004, 192.0, 0.0, 0.0, 0.0, 0.0, 0.0, 0.0, 0.0, 0.0, 0.0, 1.6946009430312917E9, 0.0, 2023-09-13 12:29:03.031
59.0, -12.204052472597656, 187500.0, 187500.0, 187500.0, 187500.0, 187500.0, 187500.0, 187500.0, 0.026000000000000002, -0.006, 1.004, 192.0, 0.0, 0.0, 0.0, 0.0, 0.0, 0.0, 0.0, 0.0, 0.0, 1.6946009430313416E9, 0.0, 2023-09-13 12:29:03.031
60.0, -17.81434033087973, 187500.0, 187500.0, 187500.0, 187500.0, 187500.0, 187500.0, 187500.0, 0.026000000000000002, -0.006, 1.004, 192.0, 0.0, 0.0, 0.0, 0.0, 0.0, 0.0, 0.0, 0.0, 0.0, 1.6946009430313745E9, 0.0, 2023-09-13 12:29:03.031
61.0, -38.02031731847731, 187500.0, 187500.0, 187500.0, 187500.0, 187500.0, 187500.0, 187500.0, 0.026000000000000002, -0.006, 1.004, 192.0, 0.0, 0.0, 0.0, 0.0, 0.0, 0.0, 0.0, 0.0, 0.0, 1.6946009430314E9, 0.0, 2023-09-13 12:29:03.031
62.0, -42.64712842072588, 187500.0, 187500.0, 187500.0, 187500.0, 187500.0, 187500.0, 187500.0, 0.026000000000000002, -0.006, 1.004, 192.0, 0.0, 0.0, 0.0, 0.0, 0.0, 0.0, 0.0, 0.0, 0.0, 1.694600943031925E9, 0.0, 2023-09-13 12:29:03.031
63.0, -42.51301795399403, 187500.0, 187500.0, 187500.0, 187500.0, 187500.0, 187500.0, 187500.0, 0.026000000000000002, -0.006, 1.004, 192.0, 0.0, 0.0, 0.0, 0.0, 0.0, 0.0, 0.0, 0.0, 0.0, 1.694600943031972E9, 0.0, 2023-09-13 12:29:03.031
64.0, -37.260358006996874, 187500.0, 187500.0, 187500.0, 187500.0, 187500.0, 187500.0, 187500.0, 0.026000000000000002, -0.006, 1.004, 192.0, 0.0, 0.0, 0.0, 0.0, 0.0, 0.0, 0.0, 0.0, 0.0, 1.694600943032012E9, 0.0, 2023-09-13 12:29:03.032
65.0, -16.96497404157806, 187500.0, 187500.0, 187500.0, 187500.0, 187500.0, 187500.0, 187500.0, 0.026000000000000002, -0.006, 1.004, 192.0, 0.0, 0.0, 0.0, 0.0, 0.0, 0.0, 0.0, 0.0, 0.0, 1.694600943032068E9, 0.0, 2023-09-13 12:29:03.032
66.0, -12.494625150516647, 187500.0, 187500.0, 187500.0, 187500.0, 187500.0, 187500.0, 187500.0, 0.026000000000000002, -0.006, 1.004, 192.0, 0.0, 0.0, 0.0, 0.0, 0.0, 0.0, 0.0, 0.0, 0.0, 1.6946009430321095E9, 0.0, 2023-09-13 12:29:03.032
67.0, -12.584032128337876, 187500.0, 187500.0, 187500.0, 187500.0, 187500.0, 187500.0, 187500.0, 0.028, -0.004, 1.0, 192.0, 0.0, 224.0, 255.0, 224.0, 31.0, 64.0, 0.0, 0.0, 0.0, 1.6946009430321507E9, 0.0, 2023-09-13 12:29:03.032
68.0, -18.01550603097749, 187500.0, 187500.0, 187500.0, 187500.0, 187500.0, 187500.0, 187500.0, 0.028, -0.004, 1.0, 192.0, 0.0, 0.0, 0.0, 0.0, 0.0, 0.0, 0.0, 0.0, 0.0, 1.6946009430321918E9, 0.0, 2023-09-13 12:29:03.032
69.0, -38.19913127411977, 187500.0, 187500.0, 187500.0, 187500.0, 187500.0, 187500.0, 187500.0, 0.028, -0.004, 1.0, 192.0, 0.0, 0.0, 0.0, 0.0, 0.0, 0.0, 0.0, 0.0, 0.0, 1.6946009430322478E9, 0.0, 2023-09-13 12:29:03.032
70.0, -42.82594237636833, 187500.0, 187500.0, 187500.0, 187500.0, 187500.0, 187500.0, 187500.0, 0.028, -0.004, 1.0, 192.0, 0.0, 0.0, 0.0, 0.0, 0.0, 0.0, 0.0, 0.0, 0.0, 1.6946009430322864E9, 0.0, 2023-09-13 12:29:03.032
71.0, -42.78123888745772, 187500.0, 187500.0, 187500.0, 187500.0, 187500.0, 187500.0, 187500.0, 0.028, -0.004, 1.0, 192.0, 0.0, 0.0, 0.0, 0.0, 0.0, 0.0, 0.0, 0.0, 0.0, 1.6946009430323243E9, 0.0, 2023-09-13 12:29:03.032
72.0, -37.77444812946894, 187500.0, 187500.0, 187500.0, 187500.0, 187500.0, 187500.0, 187500.0, 0.028, -0.004, 1.0, 192.0, 0.0, 0.0, 0.0, 0.0, 0.0, 0.0, 0.0, 0.0, 0.0, 1.694600943032366E9, 0.0, 2023-09-13 12:29:03.032
73.0, -17.59082288632666, 187500.0, 187500.0, 187500.0, 187500.0, 187500.0, 187500.0, 187500.0, 0.028, -0.004, 1.0, 192.0, 0.0, 0.0, 0.0, 0.0, 0.0, 0.0, 0.0, 0.0, 0.0, 1.6946009430324085E9, 0.0, 2023-09-13 12:29:03.032
74.0, -12.449921661606034, 187500.0, 187500.0, 187500.0, 187500.0, 187500.0, 187500.0, 187500.0, 0.028, -0.004, 1.0, 192.0, 0.0, 0.0, 0.0, 0.0, 0.0, 0.0, 0.0, 0.0, 0.0, 1.6946009430324516E9, 0.0, 2023-09-13 12:29:03.032
75.0, -12.315811194874192, 187500.0, 187500.0, 187500.0, 187500.0, 187500.0, 187500.0, 187500.0, 0.028, -0.004, 1.0, 192.0, 0.0, 0.0, 0.0, 0.0, 0.0, 0.0, 0.0, 0.0, 0.0, 1.6946009430324948E9, 0.0, 2023-09-13 12:29:03.032
76.0, -18.0378577754328, 187500.0, 187500.0, 187500.0, 187500.0, 187500.0, 187500.0, 187500.0, 0.028, -0.004, 1.0, 192.0, 0.0, 0.0, 0.0, 0.0, 0.0, 0.0, 0.0, 0.0, 0.0, 1.6946009430325377E9, 0.0, 2023-09-13 12:29:03.032
77.0, -38.08737255184324, 187500.0, 187500.0, 187500.0, 187500.0, 187500.0, 187500.0, 187500.0, 0.032, -0.004, 1.002, 192.0, 1.0, 0.0, 255.0, 224.0, 31.0, 80.0, 0.0, 0.0, 0.0, 1.6946009430329523E9, 0.0, 2023-09-13 12:29:03.032
78.0, -42.55772144290465, 187500.0, 187500.0, 187500.0, 187500.0, 187500.0, 187500.0, 187500.0, 0.032, -0.004, 1.002, 192.0, 0.0, 0.0, 0.0, 0.0, 0.0, 0.0, 0.0, 0.0, 0.0, 1.6946009430329983E9, 0.0, 2023-09-13 12:29:03.032
79.0, -42.37890748726219, 187500.0, 187500.0, 187500.0, 187500.0, 187500.0, 187500.0, 187500.0, 0.032, -0.004, 1.002, 192.0, 0.0, 0.0, 0.0, 0.0, 0.0, 0.0, 0.0, 0.0, 0.0, 1.6946009430330365E9, 0.0, 2023-09-13 12:29:03.033
80.0, -37.14859928472034, 187500.0, 187500.0, 187500.0, 187500.0, 187500.0, 187500.0, 187500.0, 0.032, -0.004, 1.002, 192.0, 0.0, 0.0, 0.0, 0.0, 0.0, 0.0, 0.0, 0.0, 0.0, 1.694600943033075E9, 0.0, 2023-09-13 12:29:03.033
81.0, -16.96497404157806, 187500.0, 187500.0, 187500.0, 187500.0, 187500.0, 187500.0, 187500.0, 0.032, -0.004, 1.002, 192.0, 0.0, 0.0, 0.0, 0.0, 0.0, 0.0, 0.0, 0.0, 0.0, 1.6946009430331585E9, 0.0, 2023-09-13 12:29:03.033
82.0, -12.494625150516647, 187500.0, 187500.0, 187500.0, 187500.0, 187500.0, 187500.0, 187500.0, 0.032, -0.004, 1.002, 192.0, 0.0, 0.0, 0.0, 0.0, 0.0, 0.0, 0.0, 0.0, 0.0, 1.6946009430331993E9, 0.0, 2023-09-13 12:29:03.033
83.0, -12.606383872793183, 187500.0, 187500.0, 187500.0, 187500.0, 187500.0, 187500.0, 187500.0, 0.032, -0.004, 1.002, 192.0, 0.0, 0.0, 0.0, 0.0, 0.0, 0.0, 0.0, 0.0, 0.0, 1.6946009430332649E9, 0.0, 2023-09-13 12:29:03.033
84.0, -17.65787811969258, 187500.0, 187500.0, 187500.0, 187500.0, 187500.0, 187500.0, 187500.0, 0.032, -0.004, 1.002, 192.0, 0.0, 0.0, 0.0, 0.0, 0.0, 0.0, 0.0, 0.0, 0.0, 1.6946009430333068E9, 0.0, 2023-09-13 12:29:03.033
85.0, -37.84150336283486, 187500.0, 187500.0, 187500.0, 187500.0, 187500.0, 187500.0, 187500.0, 0.032, -0.004, 1.002, 192.0, 0.0, 0.0, 0.0, 0.0, 0.0, 0.0, 0.0, 0.0, 0.0, 1.6946009430333467E9, 0.0, 2023-09-13 12:29:03.033
86.0, -42.46831446508342, 187500.0, 187500.0, 187500.0, 187500.0, 187500.0, 187500.0, 187500.0, 0.032, -0.004, 1.002, 192.0, 0.0, 0.0, 0.0, 0.0, 0.0, 0.0, 0.0, 0.0, 0.0, 1.6946009430333867E9, 0.0, 2023-09-13 12:29:03.033
87.0, -42.51301795399403, 187500.0, 187500.0, 187500.0, 187500.0, 187500.0, 187500.0, 187500.0, 0.032, -0.004, 1.006, 192.0, 1.0, 0.0, 255.0, 224.0, 31.0, 112.0, 0.0, 0.0, 0.0, 1.6946009430335264E9, 0.0, 2023-09-13 12:29:03.033
88.0, -37.3497649848181, 187500.0, 187500.0, 187500.0, 187500.0, 187500.0, 187500.0, 187500.0, 0.032, -0.004, 1.006, 192.0, 0.0, 0.0, 0.0, 0.0, 0.0, 0.0, 0.0, 0.0, 0.0, 1.6946009430335677E9, 0.0, 2023-09-13 12:29:03.033
89.0, -17.009677530488673, 187500.0, 187500.0, 187500.0, 187500.0, 187500.0, 187500.0, 187500.0, 0.032, -0.004, 1.006, 192.0, 0.0, 0.0, 0.0, 0.0, 0.0, 0.0, 0.0, 0.0, 0.0, 1.694600943033607E9, 0.0, 2023-09-13 12:29:03.033
90.0, -12.449921661606034, 187500.0, 187500.0, 187500.0, 187500.0, 187500.0, 187500.0, 187500.0, 0.032, -0.004, 1.006, 192.0, 0.0, 0.0, 0.0, 0.0, 0.0, 0.0, 0.0, 0.0, 0.0, 1.6946009430336463E9, 0.0, 2023-09-13 12:29:03.033
91.0, -12.494625150516647, 187500.0, 187500.0, 187500.0, 187500.0, 187500.0, 187500.0, 187500.0, 0.032, -0.004, 1.006, 192.0, 0.0, 0.0, 0.0, 0.0, 0.0, 0.0, 0.0, 0.0, 0.0, 1.6946009430336876E9, 0.0, 2023-09-13 12:29:03.033
92.0, -17.94845079761157, 187500.0, 187500.0, 187500.0, 187500.0, 187500.0, 187500.0, 187500.0, 0.032, -0.004, 1.006, 192.0, 0.0, 0.0, 0.0, 0.0, 0.0, 0.0, 0.0, 0.0, 0.0, 1.6946009430337253E9, 0.0, 2023-09-13 12:29:03.033
93.0, -37.75209638501363, 187500.0, 187500.0, 187500.0, 187500.0, 187500.0, 187500.0, 187500.0, 0.032, -0.004, 1.006, 192.0, 0.0, 0.0, 0.0, 0.0, 0.0, 0.0, 0.0, 0.0, 0.0, 1.6946009430340383E9, 0.0, 2023-09-13 12:29:03.034
94.0, -42.28950050944096, 187500.0, 187500.0, 187500.0, 187500.0, 187500.0, 187500.0, 187500.0, 0.032, -0.004, 1.006, 192.0, 0.0, 0.0, 0.0, 0.0, 0.0, 0.0, 0.0, 0.0, 0.0, 1.6946009430340874E9, 0.0, 2023-09-13 12:29:03.034
95.0, -42.401259231717496, 187500.0, 187500.0, 187500.0, 187500.0, 187500.0, 187500.0, 187500.0, 0.032, -0.004, 1.006, 192.0, 0.0, 0.0, 0.0, 0.0, 0.0, 0.0, 0.0, 0.0, 0.0, 1.6946009430341387E9, 0.0, 2023-09-13 12:29:03.034
96.0, -37.640337662737096, 187500.0, 187500.0, 187500.0, 187500.0, 187500.0, 187500.0, 187500.0, 0.032, -0.004, 1.006, 192.0, 0.0, 0.0, 0.0, 0.0, 0.0, 0.0, 0.0, 0.0, 0.0, 1.6946009430341907E9, 0.0, 2023-09-13 12:29:03.034
97.0, -17.233194975041744, 187500.0, 187500.0, 187500.0, 187500.0, 187500.0, 187500.0, 187500.0, 0.028, -0.008, 1.006, 192.0, 0.0, 224.0, 255.0, 192.0, 31.0, 112.0, 0.0, 0.0, 0.0, 1.6946009430342693E9, 0.0, 2023-09-13 12:29:03.034
98.0, -11.846424561312743, 187500.0, 187500.0, 187500.0, 187500.0, 187500.0, 187500.0, 187500.0, 0.028, -0.008, 1.006, 192.0, 0.0, 0.0, 0.0, 0.0, 0.0, 0.0, 0.0, 0.0, 0.0, 1.694600943034315E9, 0.0, 2023-09-13 12:29:03.034
99.0, -12.136997239231736, 187500.0, 187500.0, 187500.0, 187500.0, 187500.0, 187500.0, 187500.0, 0.028, -0.008, 1.006, 192.0, 0.0, 0.0, 0.0, 0.0, 0.0, 0.0, 0.0, 0.0, 0.0, 1.6946009430343547E9, 0.0, 2023-09-13 12:29:03.034
100.0, -17.65787811969258, 187500.0, 187500.0, 187500.0, 187500.0, 187500.0, 187500.0, 187500.0, 0.028, -0.008, 1.006, 192.0, 0.0, 0.0, 0.0, 0.0, 0.0, 0.0, 0.0, 0.0, 0.0, 1.694600943034398E9, 0.0, 2023-09-13 12:29:03.034
101.0, -37.930910340656084, 187500.0, 187500.0, 187500.0, 187500.0, 187500.0, 187500.0, 187500.0, 0.028, -0.008, 1.006, 192.0, 0.0, 0.0, 0.0, 0.0, 0.0, 0.0, 0.0, 0.0, 0.0, 1.6946009430344448E9, 0.0, 2023-09-13 12:29:03.034
102.0, -42.602424931815264, 187500.0, 187500.0, 187500.0, 187500.0, 187500.0, 187500.0, 187500.0, 0.028, -0.008, 1.006, 192.0, 0.0, 0.0, 0.0, 0.0, 0.0, 0.0, 0.0, 0.0, 0.0, 1.694600943034495E9, 0.0, 2023-09-13 12:29:03.034
103.0, -42.44596272062811, 187500.0, 187500.0, 187500.0, 187500.0, 187500.0, 187500.0, 187500.0, 0.028, -0.008, 1.006, 192.0, 0.0, 0.0, 0.0, 0.0, 0.0, 0.0, 0.0, 0.0, 0.0, 1.6946009430345373E9, 0.0, 2023-09-13 12:29:03.034
104.0, -37.3497649848181, 187500.0, 187500.0, 187500.0, 187500.0, 187500.0, 187500.0, 187500.0, 0.028, -0.008, 1.006, 192.0, 0.0, 0.0, 0.0, 0.0, 0.0, 0.0, 0.0, 0.0, 0.0, 1.6946009430345795E9, 0.0, 2023-09-13 12:29:03.034
105.0, -17.322601952862975, 187500.0, 187500.0, 187500.0, 187500.0, 187500.0, 187500.0, 187500.0, 0.028, -0.008, 1.006, 192.0, 0.0, 0.0, 0.0, 0.0, 0.0, 0.0, 0.0, 0.0, 0.0, 1.694600943034629E9, 0.0, 2023-09-13 12:29:03.034
106.0, -12.651087361703798, 187500.0, 187500.0, 187500.0, 187500.0, 187500.0, 187500.0, 187500.0, 0.028, -0.008, 1.006, 192.0, 0.0, 0.0, 0.0, 0.0, 0.0, 0.0, 0.0, 0.0, 0.0, 1.6946009430346563E9, 0.0, 2023-09-13 12:29:03.034
107.0, -12.449921661606034, 187500.0, 187500.0, 187500.0, 187500.0, 187500.0, 187500.0, 187500.0, 0.028, -0.01, 1.006, 192.0, 0.0, 224.0, 255.0, 176.0, 31.0, 112.0, 0.0, 0.0, 0.0, 1.6946009430346816E9, 0.0, 2023-09-13 12:29:03.034
108.0, -17.88139556424565, 187500.0, 187500.0, 187500.0, 187500.0, 187500.0, 187500.0, 187500.0, 0.028, -0.01, 1.006, 192.0, 0.0, 0.0, 0.0, 0.0, 0.0, 0.0, 0.0, 0.0, 0.0, 1.694600943035008E9, 0.0, 2023-09-13 12:29:03.035
109.0, -37.68504115164771, 187500.0, 187500.0, 187500.0, 187500.0, 187500.0, 187500.0, 187500.0, 0.028, -0.01, 1.006, 192.0, 0.0, 0.0, 0.0, 0.0, 0.0, 0.0, 0.0, 0.0, 0.0, 1.6946009430350385E9, 0.0, 2023-09-13 12:29:03.035
110.0, -42.55772144290465, 187500.0, 187500.0, 187500.0, 187500.0, 187500.0, 187500.0, 187500.0, 0.028, -0.01, 1.006, 192.0, 0.0, 0.0, 0.0, 0.0, 0.0, 0.0, 0.0, 0.0, 0.0, 1.6946009430350657E9, 0.0, 2023-09-13 12:29:03.035
111.0, -42.7141836540918, 187500.0, 187500.0, 187500.0, 187500.0, 187500.0, 187500.0, 187500.0, 0.028, -0.01, 1.006, 192.0, 0.0, 0.0, 0.0, 0.0, 0.0, 0.0, 0.0, 0.0, 0.0, 1.6946009430350938E9, 0.0, 2023-09-13 12:29:03.035
112.0, -37.260358006996874, 187500.0, 187500.0, 187500.0, 187500.0, 187500.0, 187500.0, 187500.0, 0.028, -0.01, 1.006, 192.0, 0.0, 0.0, 0.0, 0.0, 0.0, 0.0, 0.0, 0.0, 0.0, 1.6946009430351193E9, 0.0, 2023-09-13 12:29:03.035
113.0, -16.987325786033367, 187500.0, 187500.0, 187500.0, 187500.0, 187500.0, 187500.0, 187500.0, 0.028, -0.01, 1.006, 192.0, 0.0, 0.0, 0.0, 0.0, 0.0, 0.0, 0.0, 0.0, 0.0, 1.6946009430351443E9, 0.0, 2023-09-13 12:29:03.035
114.0, -12.204052472597656, 187500.0, 187500.0, 187500.0, 187500.0, 187500.0, 187500.0, 187500.0, 0.028, -0.01, 1.006, 192.0, 0.0, 0.0, 0.0, 0.0, 0.0, 0.0, 0.0, 0.0, 0.0, 1.6946009430351713E9, 0.0, 2023-09-13 12:29:03.035
115.0, -12.271107705963578, 187500.0, 187500.0, 187500.0, 187500.0, 187500.0, 187500.0, 187500.0, 0.028, -0.01, 1.006, 192.0, 0.0, 0.0, 0.0, 0.0, 0.0, 0.0, 0.0, 0.0, 0.0, 1.6946009430351963E9, 0.0, 2023-09-13 12:29:03.035
116.0, -17.523767652960736, 187500.0, 187500.0, 187500.0, 187500.0, 187500.0, 187500.0, 187500.0, 0.028, -0.01, 1.006, 192.0, 0.0, 0.0, 0.0, 0.0, 0.0, 0.0, 0.0, 0.0, 0.0, 1.6946009430352612E9, 0.0, 2023-09-13 12:29:03.035
117.0, -37.640337662737096, 187500.0, 187500.0, 187500.0, 187500.0, 187500.0, 187500.0, 187500.0, 0.03, -0.006, 1.008, 192.0, 0.0, 240.0, 255.0, 208.0, 31.0, 128.0, 0.0, 0.0, 0.0, 1.6946009430352907E9, 0.0, 2023-09-13 12:29:03.035
118.0, -42.75888714300241, 187500.0, 187500.0, 187500.0, 187500.0, 187500.0, 187500.0, 187500.0, 0.03, -0.006, 1.008, 192.0, 0.0, 0.0, 0.0, 0.0, 0.0, 0.0, 0.0, 0.0, 0.0, 1.6946009430353184E9, 0.0, 2023-09-13 12:29:03.035
119.0, -42.334203998351576, 187500.0, 187500.0, 187500.0, 187500.0, 187500.0, 187500.0, 187500.0, 0.03, -0.006, 1.008, 192.0, 0.0, 0.0, 0.0, 0.0, 0.0, 0.0, 0.0, 0.0, 0.0, 1.6946009430353453E9, 0.0, 2023-09-13 12:29:03.035
120.0, -37.30506149590749, 187500.0, 187500.0, 187500.0, 187500.0, 187500.0, 187500.0, 187500.0, 0.03, -0.006, 1.008, 192.0, 0.0, 0.0, 0.0, 0.0, 0.0, 0.0, 0.0, 0.0, 0.0, 1.6946009430353715E9, 0.0, 2023-09-13 12:29:03.035
121.0, -17.05438101939929, 187500.0, 187500.0, 187500.0, 187500.0, 187500.0, 187500.0, 187500.0, 0.03, -0.006, 1.008, 192.0, 0.0, 0.0, 0.0, 0.0, 0.0, 0.0, 0.0, 0.0, 0.0, 1.694600943508038E9, 0.0, 2023-09-13 12:29:03.508
122.0, -12.78519782843564, 187500.0, 187500.0, 187500.0, 187500.0, 187500.0, 187500.0, 187500.0, 0.03, -0.006, 1.008, 192.0, 0.0, 0.0, 0.0, 0.0, 0.0, 0.0, 0.0, 0.0, 0.0, 1.6946009435083537E9, 0.0, 2023-09-13 12:29:03.508
123.0, -12.56168038388257, 187500.0, 187500.0, 187500.0, 187500.0, 187500.0, 187500.0, 187500.0, 0.03, -0.006, 1.008, 192.0, 0.0, 0.0, 0.0, 0.0, 0.0, 0.0, 0.0, 0.0, 0.0, 1.6946009435089676E9, 0.0, 2023-09-13 12:29:03.508
124.0, -18.12726475325403, 187500.0, 187500.0, 187500.0, 187500.0, 187500.0, 187500.0, 187500.0, 0.03, -0.006, 1.008, 192.0, 0.0, 0.0, 0.0, 0.0, 0.0, 0.0, 0.0, 0.0, 0.0, 1.6946009435090656E9, 0.0, 2023-09-13 12:29:03.509
125.0, -38.109724296298545, 187500.0, 187500.0, 187500.0, 187500.0, 187500.0, 187500.0, 187500.0, 0.03, -0.006, 1.008, 192.0, 0.0, 0.0, 0.0, 0.0, 0.0, 0.0, 0.0, 0.0, 0.0, 1.694600943509145E9, 0.0, 2023-09-13 12:29:03.509
126.0, -42.96005284310017, 187500.0, 187500.0, 187500.0, 187500.0, 187500.0, 187500.0, 187500.0, 0.03, -0.006, 1.008, 192.0, 0.0, 0.0, 0.0, 0.0, 0.0, 0.0, 0.0, 0.0, 0.0, 1.6946009435092452E9, 0.0, 2023-09-13 12:29:03.509
127.0, -42.937701098644865, 187500.0, 187500.0, 187500.0, 187500.0, 187500.0, 187500.0, 187500.0, 0.028, -0.008, 1.004, 192.0, 0.0, 224.0, 255.0, 192.0, 31.0, 96.0, 0.0, 0.0, 0.0, 1.6946009435093265E9, 0.0, 2023-09-13 12:29:03.509
128.0, -37.193302773630954, 187500.0, 187500.0, 187500.0, 187500.0, 187500.0, 187500.0, 187500.0, 0.028, -0.008, 1.004, 192.0, 0.0, 0.0, 0.0, 0.0, 0.0, 0.0, 0.0, 0.0, 0.0, 1.6946009435094016E9, 0.0, 2023-09-13 12:29:03.509
129.0, -17.076732763854597, 187500.0, 187500.0, 187500.0, 187500.0, 187500.0, 187500.0, 187500.0, 0.028, -0.008, 1.004, 192.0, 0.0, 0.0, 0.0, 0.0, 0.0, 0.0, 0.0, 0.0, 0.0, 1.6946009435094707E9, 0.0, 2023-09-13 12:29:03.509
130.0, -12.494625150516647, 187500.0, 187500.0, 187500.0, 187500.0, 187500.0, 187500.0, 187500.0, 0.028, -0.008, 1.004, 192.0, 0.0, 0.0, 0.0, 0.0, 0.0, 0.0, 0.0, 0.0, 0.0, 1.6946009435095403E9, 0.0, 2023-09-13 12:29:03.509
131.0, -12.56168038388257, 187500.0, 187500.0, 187500.0, 187500.0, 187500.0, 187500.0, 187500.0, 0.028, -0.008, 1.004, 192.0, 0.0, 0.0, 0.0, 0.0, 0.0, 0.0, 0.0, 0.0, 0.0, 1.6946009435096023E9, 0.0, 2023-09-13 12:29:03.509
132.0, -18.01550603097749, 187500.0, 187500.0, 187500.0, 187500.0, 187500.0, 187500.0, 187500.0, 0.028, -0.008, 1.004, 192.0, 0.0, 0.0, 0.0, 0.0, 0.0, 0.0, 0.0, 0.0, 0.0, 1.6946009435096822E9, 0.0, 2023-09-13 12:29:03.509
133.0, -37.86385510729016, 187500.0, 187500.0, 187500.0, 187500.0, 187500.0, 187500.0, 187500.0, 0.028, -0.008, 1.004, 192.0, 0.0, 0.0, 0.0, 0.0, 0.0, 0.0, 0.0, 0.0, 0.0, 1.69460094350976E9, 0.0, 2023-09-13 12:29:03.509
134.0, -42.51301795399403, 187500.0, 187500.0, 187500.0, 187500.0, 187500.0, 187500.0, 187500.0, 0.028, -0.008, 1.004, 192.0, 0.0, 0.0, 0.0, 0.0, 0.0, 0.0, 0.0, 0.0, 0.0, 1.6946009435098383E9, 0.0, 2023-09-13 12:29:03.509
135.0, -42.334203998351576, 187500.0, 187500.0, 187500.0, 187500.0, 187500.0, 187500.0, 187500.0, 0.028, -0.008, 1.004, 192.0, 0.0, 0.0, 0.0, 0.0, 0.0, 0.0, 0.0, 0.0, 0.0, 1.6946009435099134E9, 0.0, 2023-09-13 12:29:03.509
136.0, -37.528578940460555, 187500.0, 187500.0, 187500.0, 187500.0, 187500.0, 187500.0, 187500.0, 0.028, -0.008, 1.004, 192.0, 0.0, 0.0, 0.0, 0.0, 0.0, 0.0, 0.0, 0.0, 0.0, 1.694600943509987E9, 0.0, 2023-09-13 12:29:03.509
137.0, -17.05438101939929, 187500.0, 187500.0, 187500.0, 187500.0, 187500.0, 187500.0, 187500.0, 0.03, -0.004, 1.0, 192.0, 0.0, 240.0, 255.0, 224.0, 31.0, 64.0, 0.0, 0.0, 0.0, 1.6946009435100672E9, 0.0, 2023-09-13 12:29:03.510
138.0, -12.449921661606034, 187500.0, 187500.0, 187500.0, 187500.0, 187500.0, 187500.0, 187500.0, 0.03, -0.004, 1.0, 192.0, 0.0, 0.0, 0.0, 0.0, 0.0, 0.0, 0.0, 0.0, 0.0, 1.6946009435101404E9, 0.0, 2023-09-13 12:29:03.510
139.0, -12.09229375032112, 187500.0, 187500.0, 187500.0, 187500.0, 187500.0, 187500.0, 187500.0, 0.03, -0.004, 1.0, 192.0, 0.0, 0.0, 0.0, 0.0, 0.0, 0.0, 0.0, 0.0, 0.0, 1.694600943510392E9, 0.0, 2023-09-13 12:29:03.510
140.0, -17.702581608603193, 187500.0, 187500.0, 187500.0, 187500.0, 187500.0, 187500.0, 187500.0, 0.03, -0.004, 1.0, 192.0, 0.0, 0.0, 0.0, 0.0, 0.0, 0.0, 0.0, 0.0, 0.0, 1.694600943510478E9, 0.0, 2023-09-13 12:29:03.510
141.0, -38.19913127411977, 187500.0, 187500.0, 187500.0, 187500.0, 187500.0, 187500.0, 187500.0, 0.03, -0.004, 1.0, 192.0, 0.0, 0.0, 0.0, 0.0, 0.0, 0.0, 0.0, 0.0, 0.0, 1.6946009435105586E9, 0.0, 2023-09-13 12:29:03.510
142.0, -42.736535398547105, 187500.0, 187500.0, 187500.0, 187500.0, 187500.0, 187500.0, 187500.0, 0.03, -0.004, 1.0, 192.0, 0.0, 0.0, 0.0, 0.0, 0.0, 0.0, 0.0, 0.0, 0.0, 1.6946009435106528E9, 0.0, 2023-09-13 12:29:03.510
143.0, -42.736535398547105, 187500.0, 187500.0, 187500.0, 187500.0, 187500.0, 187500.0, 187500.0, 0.03, -0.004, 1.0, 192.0, 0.0, 0.0, 0.0, 0.0, 0.0, 0.0, 0.0, 0.0, 0.0, 1.6946009435107164E9, 0.0, 2023-09-13 12:29:03.510
144.0, -37.528578940460555, 187500.0, 187500.0, 187500.0, 187500.0, 187500.0, 187500.0, 187500.0, 0.03, -0.004, 1.0, 192.0, 0.0, 0.0, 0.0, 0.0, 0.0, 0.0, 0.0, 0.0, 0.0, 1.6946009435107565E9, 0.0, 2023-09-13 12:29:03.510
145.0, -17.143787997220517, 187500.0, 187500.0, 187500.0, 187500.0, 187500.0, 187500.0, 187500.0, 0.03, -0.004, 1.0, 192.0, 0.0, 0.0, 0.0, 0.0, 0.0, 0.0, 0.0, 0.0, 0.0, 1.6946009435107975E9, 0.0, 2023-09-13 12:29:03.510
146.0, -12.449921661606034, 187500.0, 187500.0, 187500.0, 187500.0, 187500.0, 187500.0, 187500.0, 0.03, -0.004, 1.0, 192.0, 0.0, 0.0, 0.0, 0.0, 0.0, 0.0, 0.0, 0.0, 0.0, 1.6946009435108397E9, 0.0, 2023-09-13 12:29:03.510
147.0, -12.449921661606034, 187500.0, 187500.0, 187500.0, 187500.0, 187500.0, 187500.0, 187500.0, 0.028, -0.006, 1.012, 192.0, 0.0, 224.0, 255.0, 208.0, 31.0, 160.0, 0.0, 0.0, 0.0, 1.6946009435108843E9, 0.0, 2023-09-13 12:29:03.510
148.0, -17.702581608603193, 187500.0, 187500.0, 187500.0, 187500.0, 187500.0, 187500.0, 187500.0, 0.028, -0.006, 1.012, 192.0, 0.0, 0.0, 0.0, 0.0, 0.0, 0.0, 0.0, 0.0, 0.0, 1.694600943510946E9, 0.0, 2023-09-13 12:29:03.510
149.0, -37.48387545154994, 187500.0, 187500.0, 187500.0, 187500.0, 187500.0, 187500.0, 187500.0, 0.028, -0.006, 1.012, 192.0, 0.0, 0.0, 0.0, 0.0, 0.0, 0.0, 0.0, 0.0, 0.0, 1.6946009435109975E9, 0.0, 2023-09-13 12:29:03.510
150.0, -42.334203998351576, 187500.0, 187500.0, 187500.0, 187500.0, 187500.0, 187500.0, 187500.0, 0.028, -0.006, 1.012, 192.0, 0.0, 0.0, 0.0, 0.0, 0.0, 0.0, 0.0, 0.0, 0.0, 1.69460094351105E9, 0.0, 2023-09-13 12:29:03.511
151.0, -42.64712842072588, 187500.0, 187500.0, 187500.0, 187500.0, 187500.0, 187500.0, 187500.0, 0.028, -0.006, 1.012, 192.0, 0.0, 0.0, 0.0, 0.0, 0.0, 0.0, 0.0, 0.0, 0.0, 1.6946009435110977E9, 0.0, 2023-09-13 12:29:03.511
152.0, -37.640337662737096, 187500.0, 187500.0, 187500.0, 187500.0, 187500.0, 187500.0, 187500.0, 0.028, -0.006, 1.012, 192.0, 0.0, 0.0, 0.0, 0.0, 0.0, 0.0, 0.0, 0.0, 0.0, 1.694600943511147E9, 0.0, 2023-09-13 12:29:03.511
153.0, -17.34495369731828, 187500.0, 187500.0, 187500.0, 187500.0, 187500.0, 187500.0, 187500.0, 0.028, -0.006, 1.012, 192.0, 0.0, 0.0, 0.0, 0.0, 0.0, 0.0, 0.0, 0.0, 0.0, 1.6946009435111983E9, 0.0, 2023-09-13 12:29:03.511
154.0, -12.494625150516647, 187500.0, 187500.0, 187500.0, 187500.0, 187500.0, 187500.0, 187500.0, 0.028, -0.006, 1.012, 192.0, 0.0, 0.0, 0.0, 0.0, 0.0, 0.0, 0.0, 0.0, 0.0, 1.6946009435115092E9, 0.0, 2023-09-13 12:29:03.511
155.0, -12.338162939329498, 187500.0, 187500.0, 187500.0, 187500.0, 187500.0, 187500.0, 187500.0, 0.028, -0.006, 1.012, 192.0, 0.0, 0.0, 0.0, 0.0, 0.0, 0.0, 0.0, 0.0, 0.0, 1.6946009435115511E9, 0.0, 2023-09-13 12:29:03.511
156.0, -17.769636841969113, 187500.0, 187500.0, 187500.0, 187500.0, 187500.0, 187500.0, 187500.0, 0.032, -0.008, 1.008, 192.0, 1.0, 0.0, 255.0, 192.0, 31.0, 128.0, 0.0, 0.0, 0.0, 1.6946009435115943E9, 0.0, 2023-09-13 12:29:03.511
157.0, -38.08737255184324, 187500.0, 187500.0, 187500.0, 187500.0, 187500.0, 187500.0, 187500.0, 0.032, -0.008, 1.008, 192.0, 0.0, 0.0, 0.0, 0.0, 0.0, 0.0, 0.0, 0.0, 0.0, 1.6946009435116632E9, 0.0, 2023-09-13 12:29:03.511
158.0, -42.62477667627057, 187500.0, 187500.0, 187500.0, 187500.0, 187500.0, 187500.0, 187500.0, 0.032, -0.008, 1.008, 192.0, 0.0, 0.0, 0.0, 0.0, 0.0, 0.0, 0.0, 0.0, 0.0, 1.6946009435117247E9, 0.0, 2023-09-13 12:29:03.511
159.0, -42.44596272062811, 187500.0, 187500.0, 187500.0, 187500.0, 187500.0, 187500.0, 187500.0, 0.032, -0.008, 1.008, 192.0, 0.0, 0.0, 0.0, 0.0, 0.0, 0.0, 0.0, 0.0, 0.0, 1.6946009435117745E9, 0.0, 2023-09-13 12:29:03.511
160.0, -37.193302773630954, 187500.0, 187500.0, 187500.0, 187500.0, 187500.0, 187500.0, 187500.0, 0.032, -0.008, 1.008, 192.0, 0.0, 0.0, 0.0, 0.0, 0.0, 0.0, 0.0, 0.0, 0.0, 1.6946009435118227E9, 0.0, 2023-09-13 12:29:03.511
161.0, -17.36730544177359, 187500.0, 187500.0, 187500.0, 187500.0, 187500.0, 187500.0, 187500.0, 0.032, -0.008, 1.008, 192.0, 0.0, 0.0, 0.0, 0.0, 0.0, 0.0, 0.0, 0.0, 0.0, 1.6946009435118768E9, 0.0, 2023-09-13 12:29:03.511
162.0, -12.56168038388257, 187500.0, 187500.0, 187500.0, 187500.0, 187500.0, 187500.0, 187500.0, 0.032, -0.008, 1.008, 192.0, 0.0, 0.0, 0.0, 0.0, 0.0, 0.0, 0.0, 0.0, 0.0, 1.6946009435119276E9, 0.0, 2023-09-13 12:29:03.511
163.0, -12.762846083980333, 187500.0, 187500.0, 187500.0, 187500.0, 187500.0, 187500.0, 187500.0, 0.032, -0.008, 1.008, 192.0, 0.0, 0.0, 0.0, 0.0, 0.0, 0.0, 0.0, 0.0, 0.0, 1.6946009435119767E9, 0.0, 2023-09-13 12:29:03.511
164.0, -17.747285097513807, 187500.0, 187500.0, 187500.0, 187500.0, 187500.0, 187500.0, 187500.0, 0.032, -0.008, 1.008, 192.0, 0.0, 0.0, 0.0, 0.0, 0.0, 0.0, 0.0, 0.0, 0.0, 1.694600943512032E9, 0.0, 2023-09-13 12:29:03.512
165.0, -37.707392896103016, 187500.0, 187500.0, 187500.0, 187500.0, 187500.0, 187500.0, 187500.0, 0.032, -0.008, 1.008, 192.0, 0.0, 0.0, 0.0, 0.0, 0.0, 0.0, 0.0, 0.0, 0.0, 1.6946009435120966E9, 0.0, 2023-09-13 12:29:03.512
166.0, -42.35655574280688, 187500.0, 187500.0, 187500.0, 187500.0, 187500.0, 187500.0, 187500.0, 0.028, -0.004, 1.0, 192.0, 0.0, 224.0, 255.0, 224.0, 31.0, 64.0, 0.0, 0.0, 0.0, 1.694600943512152E9, 0.0, 2023-09-13 12:29:03.512
167.0, -42.602424931815264, 187500.0, 187500.0, 187500.0, 187500.0, 187500.0, 187500.0, 187500.0, 0.028, -0.004, 1.0, 192.0, 0.0, 0.0, 0.0, 0.0, 0.0, 0.0, 0.0, 0.0, 0.0, 1.694600943512216E9, 0.0, 2023-09-13 12:29:03.512
168.0, -37.23800626254157, 187500.0, 187500.0, 187500.0, 187500.0, 187500.0, 187500.0, 187500.0, 0.028, -0.004, 1.0, 192.0, 0.0, 0.0, 0.0, 0.0, 0.0, 0.0, 0.0, 0.0, 0.0, 1.6946009435122728E9, 0.0, 2023-09-13 12:29:03.512
169.0, -17.03202927494398, 187500.0, 187500.0, 187500.0, 187500.0, 187500.0, 187500.0, 187500.0, 0.028, -0.004, 1.0, 192.0, 0.0, 0.0, 0.0, 0.0, 0.0, 0.0, 0.0, 0.0, 0.0, 1.6946009435126731E9, 0.0, 2023-09-13 12:29:03.512
170.0, -12.271107705963578, 187500.0, 187500.0, 187500.0, 187500.0, 187500.0, 187500.0, 187500.0, 0.028, -0.004, 1.0, 192.0, 0.0, 0.0, 0.0, 0.0, 0.0, 0.0, 0.0, 0.0, 0.0, 1.694600943512754E9, 0.0, 2023-09-13 12:29:03.512
171.0, -12.584032128337876, 187500.0, 187500.0, 187500.0, 187500.0, 187500.0, 187500.0, 187500.0, 0.028, -0.004, 1.0, 192.0, 0.0, 0.0, 0.0, 0.0, 0.0, 0.0, 0.0, 0.0, 0.0, 1.6946009435128083E9, 0.0, 2023-09-13 12:29:03.512
172.0, -18.01550603097749, 187500.0, 187500.0, 187500.0, 187500.0, 187500.0, 187500.0, 187500.0, 0.028, -0.004, 1.0, 192.0, 0.0, 0.0, 0.0, 0.0, 0.0, 0.0, 0.0, 0.0, 0.0, 1.6946009435128603E9, 0.0, 2023-09-13 12:29:03.512
173.0, -38.02031731847731, 187500.0, 187500.0, 187500.0, 187500.0, 187500.0, 187500.0, 187500.0, 0.028, -0.004, 1.0, 192.0, 0.0, 0.0, 0.0, 0.0, 0.0, 0.0, 0.0, 0.0, 0.0, 1.6946009435129116E9, 0.0, 2023-09-13 12:29:03.512
174.0, -42.736535398547105, 187500.0, 187500.0, 187500.0, 187500.0, 187500.0, 187500.0, 187500.0, 0.028, -0.004, 1.0, 192.0, 0.0, 0.0, 0.0, 0.0, 0.0, 0.0, 0.0, 0.0, 0.0, 1.6946009435129464E9, 0.0, 2023-09-13 12:29:03.512
175.0, -42.51301795399403, 187500.0, 187500.0, 187500.0, 187500.0, 187500.0, 187500.0, 187500.0, 0.028, -0.004, 1.0, 192.0, 0.0, 0.0, 0.0, 0.0, 0.0, 0.0, 0.0, 0.0, 0.0, 1.69460094351298E9, 0.0, 2023-09-13 12:29:03.512
176.0, -37.528578940460555, 187500.0, 187500.0, 187500.0, 187500.0, 187500.0, 187500.0, 187500.0, 0.024, -0.01, 1.0, 192.0, 0.0, 192.0, 255.0, 176.0, 31.0, 64.0, 0.0, 0.0, 0.0, 1.6946009435130146E9, 0.0, 2023-09-13 12:29:03.513
177.0, -17.076732763854597, 187500.0, 187500.0, 187500.0, 187500.0, 187500.0, 187500.0, 187500.0, 0.024, -0.01, 1.0, 192.0, 0.0, 0.0, 0.0, 0.0, 0.0, 0.0, 0.0, 0.0, 0.0, 1.6946009435130513E9, 0.0, 2023-09-13 12:29:03.513
178.0, -12.09229375032112, 187500.0, 187500.0, 187500.0, 187500.0, 187500.0, 187500.0, 187500.0, 0.024, -0.01, 1.0, 192.0, 0.0, 0.0, 0.0, 0.0, 0.0, 0.0, 0.0, 0.0, 0.0, 1.6946009435130854E9, 0.0, 2023-09-13 12:29:03.513
179.0, -12.360514683784805, 187500.0, 187500.0, 187500.0, 187500.0, 187500.0, 187500.0, 187500.0, 0.024, -0.01, 1.0, 192.0, 0.0, 0.0, 0.0, 0.0, 0.0, 0.0, 0.0, 0.0, 0.0, 1.6946009435131185E9, 0.0, 2023-09-13 12:29:03.513
180.0, -17.791988586424424, 187500.0, 187500.0, 187500.0, 187500.0, 187500.0, 187500.0, 187500.0, 0.024, -0.01, 1.0, 192.0, 0.0, 0.0, 0.0, 0.0, 0.0, 0.0, 0.0, 0.0, 0.0, 1.6946009435131495E9, 0.0, 2023-09-13 12:29:03.513
181.0, -38.06502080738793, 187500.0, 187500.0, 187500.0, 187500.0, 187500.0, 187500.0, 187500.0, 0.024, -0.01, 1.0, 192.0, 0.0, 0.0, 0.0, 0.0, 0.0, 0.0, 0.0, 0.0, 0.0, 1.694600943513182E9, 0.0, 2023-09-13 12:29:03.513
182.0, -42.803590631913025, 187500.0, 187500.0, 187500.0, 187500.0, 187500.0, 187500.0, 187500.0, 0.024, -0.01, 1.0, 192.0, 0.0, 0.0, 0.0, 0.0, 0.0, 0.0, 0.0, 0.0, 0.0, 1.6946009435132146E9, 0.0, 2023-09-13 12:29:03.513
183.0, -42.602424931815264, 187500.0, 187500.0, 187500.0, 187500.0, 187500.0, 187500.0, 187500.0, 0.024, -0.01, 1.0, 192.0, 0.0, 0.0, 0.0, 0.0, 0.0, 0.0, 0.0, 0.0, 0.0, 1.6946009435132496E9, 0.0, 2023-09-13 12:29:03.513
184.0, -37.14859928472034, 187500.0, 187500.0, 187500.0, 187500.0, 187500.0, 187500.0, 187500.0, 0.024, -0.01, 1.0, 192.0, 0.0, 0.0, 0.0, 0.0, 0.0, 0.0, 0.0, 0.0, 0.0, 1.6946009435132868E9, 0.0, 2023-09-13 12:29:03.513
185.0, -17.523767652960736, 187500.0, 187500.0, 187500.0, 187500.0, 187500.0, 187500.0, 187500.0, 0.024, -0.01, 1.0, 192.0, 0.0, 0.0, 0.0, 0.0, 0.0, 0.0, 0.0, 0.0, 0.0, 1.6946009435135195E9, 0.0, 2023-09-13 12:29:03.513
186.0, -12.360514683784805, 187500.0, 187500.0, 187500.0, 187500.0, 187500.0, 187500.0, 187500.0, 0.03, -0.014, 1.006, 192.0, 0.0, 240.0, 255.0, 144.0, 31.0, 112.0, 0.0, 0.0, 0.0, 1.6946009435135658E9, 0.0, 2023-09-13 12:29:03.513
187.0, -12.204052472597656, 187500.0, 187500.0, 187500.0, 187500.0, 187500.0, 187500.0, 187500.0, 0.03, -0.014, 1.006, 192.0, 0.0, 0.0, 0.0, 0.0, 0.0, 0.0, 0.0, 0.0, 0.0, 1.6946009435136104E9, 0.0, 2023-09-13 12:29:03.513
188.0, -17.926099053156264, 187500.0, 187500.0, 187500.0, 187500.0, 187500.0, 187500.0, 187500.0, 0.03, -0.014, 1.006, 192.0, 0.0, 0.0, 0.0, 0.0, 0.0, 0.0, 0.0, 0.0, 0.0, 1.6946009435136597E9, 0.0, 2023-09-13 12:29:03.513
189.0, -37.81915161837955, 187500.0, 187500.0, 187500.0, 187500.0, 187500.0, 187500.0, 187500.0, 0.03, -0.014, 1.006, 192.0, 0.0, 0.0, 0.0, 0.0, 0.0, 0.0, 0.0, 0.0, 0.0, 1.6946009435137093E9, 0.0, 2023-09-13 12:29:03.513
190.0, -42.51301795399403, 187500.0, 187500.0, 187500.0, 187500.0, 187500.0, 187500.0, 187500.0, 0.03, -0.014, 1.006, 192.0, 0.0, 0.0, 0.0, 0.0, 0.0, 0.0, 0.0, 0.0, 0.0, 1.6946009435137587E9, 0.0, 2023-09-13 12:29:03.513
191.0, -42.96005284310017, 187500.0, 187500.0, 187500.0, 187500.0, 187500.0, 187500.0, 187500.0, 0.03, -0.014, 1.006, 192.0, 0.0, 0.0, 0.0, 0.0, 0.0, 0.0, 0.0, 0.0, 0.0, 1.6946009435138044E9, 0.0, 2023-09-13 12:29:03.513
192.0, -37.41682021818402, 187500.0, 187500.0, 187500.0, 187500.0, 187500.0, 187500.0, 187500.0, 0.03, -0.014, 1.006, 192.0, 0.0, 0.0, 0.0, 0.0, 0.0, 0.0, 0.0, 0.0, 0.0, 1.6946009435138512E9, 0.0, 2023-09-13 12:29:03.513
193.0, -17.166139741675824, 187500.0, 187500.0, 187500.0, 187500.0, 187500.0, 187500.0, 187500.0, 0.03, -0.014, 1.006, 192.0, 0.0, 0.0, 0.0, 0.0, 0.0, 0.0, 0.0, 0.0, 0.0, 1.6946009435138898E9, 0.0, 2023-09-13 12:29:03.513
194.0, -12.449921661606034, 187500.0, 187500.0, 187500.0, 187500.0, 187500.0, 187500.0, 187500.0, 0.03, -0.014, 1.006, 192.0, 0.0, 0.0, 0.0, 0.0, 0.0, 0.0, 0.0, 0.0, 0.0, 1.6946009435139256E9, 0.0, 2023-09-13 12:29:03.513
195.0, -12.449921661606034, 187500.0, 187500.0, 187500.0, 187500.0, 187500.0, 187500.0, 187500.0, 0.03, -0.014, 1.006, 192.0, 0.0, 0.0, 0.0, 0.0, 0.0, 0.0, 0.0, 0.0, 0.0, 1.6946009435139616E9, 0.0, 2023-09-13 12:29:03.513
196.0, -17.903747308700957, 187500.0, 187500.0, 187500.0, 187500.0, 187500.0, 187500.0, 187500.0, 0.032, -0.01, 1.006, 192.0, 1.0, 0.0, 255.0, 176.0, 31.0, 112.0, 0.0, 0.0, 0.0, 1.694600943514001E9, 0.0, 2023-09-13 12:29:03.514
197.0, -38.26618650748569, 187500.0, 187500.0, 187500.0, 187500.0, 187500.0, 187500.0, 187500.0, 0.032, -0.01, 1.006, 192.0, 0.0, 0.0, 0.0, 0.0, 0.0, 0.0, 0.0, 0.0, 0.0, 1.6946009435140386E9, 0.0, 2023-09-13 12:29:03.514
198.0, -42.84829412082364, 187500.0, 187500.0, 187500.0, 187500.0, 187500.0, 187500.0, 187500.0, 0.032, -0.01, 1.006, 192.0, 0.0, 0.0, 0.0, 0.0, 0.0, 0.0, 0.0, 0.0, 0.0, 1.6946009435140753E9, 0.0, 2023-09-13 12:29:03.514
199.0, -42.28950050944096, 187500.0, 187500.0, 187500.0, 187500.0, 187500.0, 187500.0, 187500.0, 0.032, -0.01, 1.006, 192.0, 0.0, 0.0, 0.0, 0.0, 0.0, 0.0, 0.0, 0.0, 0.0, 1.6946009435141127E9, 0.0, 2023-09-13 12:29:03.514
200.0, -37.14859928472034, 187500.0, 187500.0, 187500.0, 187500.0, 187500.0, 187500.0, 187500.0, 0.032, -0.01, 1.006, 192.0, 0.0, 0.0, 0.0, 0.0, 0.0, 0.0, 0.0, 0.0, 0.0, 1.6946009435143087E9, 0.0, 2023-09-13 12:29:03.514
201.0, -17.65787811969258, 187500.0, 187500.0, 187500.0, 187500.0, 187500.0, 187500.0, 187500.0, 0.032, -0.01, 1.006, 192.0, 0.0, 0.0, 0.0, 0.0, 0.0, 0.0, 0.0, 0.0, 0.0, 1.6946009435143473E9, 0.0, 2023-09-13 12:29:03.514
202.0, -12.56168038388257, 187500.0, 187500.0, 187500.0, 187500.0, 187500.0, 187500.0, 187500.0, 0.032, -0.01, 1.006, 192.0, 0.0, 0.0, 0.0, 0.0, 0.0, 0.0, 0.0, 0.0, 0.0, 1.6946009435143793E9, 0.0, 2023-09-13 12:29:03.514
203.0, -12.494625150516647, 187500.0, 187500.0, 187500.0, 187500.0, 187500.0, 187500.0, 187500.0, 0.032, -0.01, 1.006, 192.0, 0.0, 0.0, 0.0, 0.0, 0.0, 0.0, 0.0, 0.0, 0.0, 1.6946009435144117E9, 0.0, 2023-09-13 12:29:03.514
204.0, -17.635526375237273, 187500.0, 187500.0, 187500.0, 187500.0, 187500.0, 187500.0, 187500.0, 0.032, -0.01, 1.006, 192.0, 0.0, 0.0, 0.0, 0.0, 0.0, 0.0, 0.0, 0.0, 0.0, 1.694600943514442E9, 0.0, 2023-09-13 12:29:03.514
205.0, -37.997965574022004, 187500.0, 187500.0, 187500.0, 187500.0, 187500.0, 187500.0, 187500.0, 0.032, -0.01, 1.006, 192.0, 0.0, 0.0, 0.0, 0.0, 0.0, 0.0, 0.0, 0.0, 0.0, 1.6946009435144725E9, 0.0, 2023-09-13 12:29:03.514
206.0, -42.62477667627057, 187500.0, 187500.0, 187500.0, 187500.0, 187500.0, 187500.0, 187500.0, 0.03, -0.006, 1.004, 192.0, 0.0, 240.0, 255.0, 208.0, 31.0, 96.0, 0.0, 0.0, 0.0, 1.694600943514504E9, 0.0, 2023-09-13 12:29:03.514
207.0, -42.55772144290465, 187500.0, 187500.0, 187500.0, 187500.0, 187500.0, 187500.0, 187500.0, 0.03, -0.006, 1.004, 192.0, 0.0, 0.0, 0.0, 0.0, 0.0, 0.0, 0.0, 0.0, 0.0, 1.694600943514537E9, 0.0, 2023-09-13 12:29:03.514
208.0, -37.48387545154994, 187500.0, 187500.0, 187500.0, 187500.0, 187500.0, 187500.0, 187500.0, 0.03, -0.006, 1.004, 192.0, 0.0, 0.0, 0.0, 0.0, 0.0, 0.0, 0.0, 0.0, 0.0, 1.6946009435145683E9, 0.0, 2023-09-13 12:29:03.514
209.0, -17.233194975041744, 187500.0, 187500.0, 187500.0, 187500.0, 187500.0, 187500.0, 187500.0, 0.03, -0.006, 1.004, 192.0, 0.0, 0.0, 0.0, 0.0, 0.0, 0.0, 0.0, 0.0, 0.0, 1.6946009435145988E9, 0.0, 2023-09-13 12:29:03.514
210.0, -12.427569917150727, 187500.0, 187500.0, 187500.0, 187500.0, 187500.0, 187500.0, 187500.0, 0.03, -0.006, 1.004, 192.0, 0.0, 0.0, 0.0, 0.0, 0.0, 0.0, 0.0, 0.0, 0.0, 1.694600943514634E9, 0.0, 2023-09-13 12:29:03.514
211.0, -12.651087361703798, 187500.0, 187500.0, 187500.0, 187500.0, 187500.0, 187500.0, 187500.0, 0.03, -0.006, 1.004, 192.0, 0.0, 0.0, 0.0, 0.0, 0.0, 0.0, 0.0, 0.0, 0.0, 1.6946009435146904E9, 0.0, 2023-09-13 12:29:03.514
212.0, -18.19431998661995, 187500.0, 187500.0, 187500.0, 187500.0, 187500.0, 187500.0, 187500.0, 0.03, -0.006, 1.004, 192.0, 0.0, 0.0, 0.0, 0.0, 0.0, 0.0, 0.0, 0.0, 0.0, 1.6946009435147464E9, 0.0, 2023-09-13 12:29:03.514
213.0, -37.77444812946894, 187500.0, 187500.0, 187500.0, 187500.0, 187500.0, 187500.0, 187500.0, 0.03, -0.006, 1.004, 192.0, 0.0, 0.0, 0.0, 0.0, 0.0, 0.0, 0.0, 0.0, 0.0, 1.6946009435147972E9, 0.0, 2023-09-13 12:29:03.514
214.0, -42.267148764985656, 187500.0, 187500.0, 187500.0, 187500.0, 187500.0, 187500.0, 187500.0, 0.03, -0.006, 1.004, 192.0, 0.0, 0.0, 0.0, 0.0, 0.0, 0.0, 0.0, 0.0, 0.0, 1.694600943514858E9, 0.0, 2023-09-13 12:29:03.514
215.0, -42.31185225389627, 187500.0, 187500.0, 187500.0, 187500.0, 187500.0, 187500.0, 187500.0, 0.03, -0.006, 1.004, 192.0, 0.0, 0.0, 0.0, 0.0, 0.0, 0.0, 0.0, 0.0, 0.0, 1.6946009435150375E9, 0.0, 2023-09-13 12:29:03.515
216.0, -37.573282429371176, 187500.0, 187500.0, 187500.0, 187500.0, 187500.0, 187500.0, 187500.0, 0.026000000000000002, -0.006, 1.0, 192.0, 0.0, 208.0, 255.0, 208.0, 31.0, 64.0, 0.0, 0.0, 0.0, 1.6946009435150833E9, 0.0, 2023-09-13 12:29:03.515
217.0, -17.009677530488673, 187500.0, 187500.0, 187500.0, 187500.0, 187500.0, 187500.0, 187500.0, 0.026000000000000002, -0.006, 1.0, 192.0, 0.0, 0.0, 0.0, 0.0, 0.0, 0.0, 0.0, 0.0, 0.0, 1.6946009435151317E9, 0.0, 2023-09-13 12:29:03.515
218.0, -12.315811194874192, 187500.0, 187500.0, 187500.0, 187500.0, 187500.0, 187500.0, 187500.0, 0.026000000000000002, -0.006, 1.0, 192.0, 0.0, 0.0, 0.0, 0.0, 0.0, 0.0, 0.0, 0.0, 0.0, 1.6946009435151763E9, 0.0, 2023-09-13 12:29:03.515
219.0, -12.159348983687043, 187500.0, 187500.0, 187500.0, 187500.0, 187500.0, 187500.0, 187500.0, 0.026000000000000002, -0.006, 1.0, 192.0, 0.0, 0.0, 0.0, 0.0, 0.0, 0.0, 0.0, 0.0, 0.0, 1.6946009435152216E9, 0.0, 2023-09-13 12:29:03.515
220.0, -17.903747308700957, 187500.0, 187500.0, 187500.0, 187500.0, 187500.0, 187500.0, 187500.0, 0.026000000000000002, -0.006, 1.0, 192.0, 0.0, 0.0, 0.0, 0.0, 0.0, 0.0, 0.0, 0.0, 0.0, 1.6946009435152664E9, 0.0, 2023-09-13 12:29:03.515
221.0, -38.26618650748569, 187500.0, 187500.0, 187500.0, 187500.0, 187500.0, 187500.0, 187500.0, 0.026000000000000002, -0.006, 1.0, 192.0, 0.0, 0.0, 0.0, 0.0, 0.0, 0.0, 0.0, 0.0, 0.0, 1.6946009435153182E9, 0.0, 2023-09-13 12:29:03.515
222.0, -42.96005284310017, 187500.0, 187500.0, 187500.0, 187500.0, 187500.0, 187500.0, 187500.0, 0.026000000000000002, -0.006, 1.0, 192.0, 0.0, 0.0, 0.0, 0.0, 0.0, 0.0, 0.0, 0.0, 0.0, 1.6946009435153706E9, 0.0, 2023-09-13 12:29:03.515
223.0, -42.602424931815264, 187500.0, 187500.0, 187500.0, 187500.0, 187500.0, 187500.0, 187500.0, 0.026000000000000002, -0.006, 1.0, 192.0, 0.0, 0.0, 0.0, 0.0, 0.0, 0.0, 0.0, 0.0, 0.0, 1.6946009435154152E9, 0.0, 2023-09-13 12:29:03.515
224.0, -37.0368405624438, 187500.0, 187500.0, 187500.0, 187500.0, 187500.0, 187500.0, 187500.0, 0.026000000000000002, -0.006, 1.0, 192.0, 0.0, 0.0, 0.0, 0.0, 0.0, 0.0, 0.0, 0.0, 0.0, 1.6946009435154607E9, 0.0, 2023-09-13 12:29:03.515
225.0, -16.96497404157806, 187500.0, 187500.0, 187500.0, 187500.0, 187500.0, 187500.0, 187500.0, 0.026000000000000002, -0.006, 1.0, 192.0, 0.0, 0.0, 0.0, 0.0, 0.0, 0.0, 0.0, 0.0, 0.0, 1.694600943515506E9, 0.0, 2023-09-13 12:29:03.515
226.0, -12.427569917150727, 187500.0, 187500.0, 187500.0, 187500.0, 187500.0, 187500.0, 187500.0, 0.03, -0.01, 1.004, 192.0, 0.0, 240.0, 255.0, 176.0, 31.0, 96.0, 0.0, 0.0, 0.0, 1.694600943515551E9, 0.0, 2023-09-13 12:29:03.515
227.0, -12.718142595069718, 187500.0, 187500.0, 187500.0, 187500.0, 187500.0, 187500.0, 187500.0, 0.03, -0.01, 1.004, 192.0, 0.0, 0.0, 0.0, 0.0, 0.0, 0.0, 0.0, 0.0, 0.0, 1.6946009435155995E9, 0.0, 2023-09-13 12:29:03.515
228.0, -17.970802542066878, 187500.0, 187500.0, 187500.0, 187500.0, 187500.0, 187500.0, 187500.0, 0.03, -0.01, 1.004, 192.0, 0.0, 0.0, 0.0, 0.0, 0.0, 0.0, 0.0, 0.0, 0.0, 1.6946009435156503E9, 0.0, 2023-09-13 12:29:03.515
229.0, -37.90855859620078, 187500.0, 187500.0, 187500.0, 187500.0, 187500.0, 187500.0, 187500.0, 0.03, -0.01, 1.004, 192.0, 0.0, 0.0, 0.0, 0.0, 0.0, 0.0, 0.0, 0.0, 0.0, 1.694600943515695E9, 0.0, 2023-09-13 12:29:03.515
230.0, -42.35655574280688, 187500.0, 187500.0, 187500.0, 187500.0, 187500.0, 187500.0, 187500.0, 0.03, -0.01, 1.004, 192.0, 0.0, 0.0, 0.0, 0.0, 0.0, 0.0, 0.0, 0.0, 0.0, 1.6946009435158696E9, 0.0, 2023-09-13 12:29:03.515
231.0, -42.401259231717496, 187500.0, 187500.0, 187500.0, 187500.0, 187500.0, 187500.0, 187500.0, 0.03, -0.01, 1.004, 192.0, 0.0, 0.0, 0.0, 0.0, 0.0, 0.0, 0.0, 0.0, 0.0, 1.694600943515919E9, 0.0, 2023-09-13 12:29:03.515
232.0, -37.41682021818402, 187500.0, 187500.0, 187500.0, 187500.0, 187500.0, 187500.0, 187500.0, 0.03, -0.01, 1.004, 192.0, 0.0, 0.0, 0.0, 0.0, 0.0, 0.0, 0.0, 0.0, 0.0, 1.6946009435159647E9, 0.0, 2023-09-13 12:29:03.515
233.0, -17.300250208407668, 187500.0, 187500.0, 187500.0, 187500.0, 187500.0, 187500.0, 187500.0, 0.03, -0.01, 1.004, 192.0, 0.0, 0.0, 0.0, 0.0, 0.0, 0.0, 0.0, 0.0, 0.0, 1.6946009435160117E9, 0.0, 2023-09-13 12:29:03.516
234.0, -12.427569917150727, 187500.0, 187500.0, 187500.0, 187500.0, 187500.0, 187500.0, 187500.0, 0.03, -0.01, 1.004, 192.0, 0.0, 0.0, 0.0, 0.0, 0.0, 0.0, 0.0, 0.0, 0.0, 1.6946009435160563E9, 0.0, 2023-09-13 12:29:03.516
235.0, -12.449921661606034, 187500.0, 187500.0, 187500.0, 187500.0, 187500.0, 187500.0, 187500.0, 0.03, -0.01, 1.004, 192.0, 0.0, 0.0, 0.0, 0.0, 0.0, 0.0, 0.0, 0.0, 0.0, 1.6946009435161057E9, 0.0, 2023-09-13 12:29:03.516
236.0, -17.702581608603193, 187500.0, 187500.0, 187500.0, 187500.0, 187500.0, 187500.0, 187500.0, 0.036000000000000004, -0.01, 1.008, 192.0, 1.0, 32.0, 255.0, 176.0, 31.0, 128.0, 0.0, 0.0, 0.0, 1.694600943516158E9, 0.0, 2023-09-13 12:29:03.516
237.0, -37.90855859620078, 187500.0, 187500.0, 187500.0, 187500.0, 187500.0, 187500.0, 187500.0, 0.036000000000000004, -0.01, 1.008, 192.0, 0.0, 0.0, 0.0, 0.0, 0.0, 0.0, 0.0, 0.0, 0.0, 1.694600943516224E9, 0.0, 2023-09-13 12:29:03.516
238.0, -42.82594237636833, 187500.0, 187500.0, 187500.0, 187500.0, 187500.0, 187500.0, 187500.0, 0.036000000000000004, -0.01, 1.008, 192.0, 0.0, 0.0, 0.0, 0.0, 0.0, 0.0, 0.0, 0.0, 0.0, 1.6946009435162833E9, 0.0, 2023-09-13 12:29:03.516
239.0, -42.62477667627057, 187500.0, 187500.0, 187500.0, 187500.0, 187500.0, 187500.0, 187500.0, 0.036000000000000004, -0.01, 1.008, 192.0, 0.0, 0.0, 0.0, 0.0, 0.0, 0.0, 0.0, 0.0, 0.0, 1.6946009435163472E9, 0.0, 2023-09-13 12:29:03.516
240.0, -37.14859928472034, 187500.0, 187500.0, 187500.0, 187500.0, 187500.0, 187500.0, 187500.0, 0.036000000000000004, -0.01, 1.008, 192.0, 0.0, 0.0, 0.0, 0.0, 0.0, 0.0, 0.0, 0.0, 0.0, 1.6946009435164015E9, 0.0, 2023-09-13 12:29:03.516
241.0, -17.456712419594815, 187500.0, 187500.0, 187500.0, 187500.0, 187500.0, 187500.0, 187500.0, 0.036000000000000004, -0.01, 1.008, 192.0, 0.0, 0.0, 0.0, 0.0, 0.0, 0.0, 0.0, 0.0, 0.0, 1.6946009439886808E9, 0.0, 2023-09-13 12:29:03.988
242.0, -12.338162939329498, 187500.0, 187500.0, 187500.0, 187500.0, 187500.0, 187500.0, 187500.0, 0.036000000000000004, -0.01, 1.008, 192.0, 0.0, 0.0, 0.0, 0.0, 0.0, 0.0, 0.0, 0.0, 0.0, 1.6946009439888585E9, 0.0, 2023-09-13 12:29:03.988
243.0, -12.449921661606034, 187500.0, 187500.0, 187500.0, 187500.0, 187500.0, 187500.0, 187500.0, 0.036000000000000004, -0.01, 1.008, 192.0, 0.0, 0.0, 0.0, 0.0, 0.0, 0.0, 0.0, 0.0, 0.0, 1.6946009439889095E9, 0.0, 2023-09-13 12:29:03.988
244.0, -17.926099053156264, 187500.0, 187500.0, 187500.0, 187500.0, 187500.0, 187500.0, 187500.0, 0.036000000000000004, -0.01, 1.008, 192.0, 0.0, 0.0, 0.0, 0.0, 0.0, 0.0, 0.0, 0.0, 0.0, 1.6946009439889567E9, 0.0, 2023-09-13 12:29:03.988
245.0, -38.15442778520916, 187500.0, 187500.0, 187500.0, 187500.0, 187500.0, 187500.0, 187500.0, 0.036000000000000004, -0.01, 1.008, 192.0, 0.0, 0.0, 0.0, 0.0, 0.0, 0.0, 0.0, 0.0, 0.0, 1.6946009439890056E9, 0.0, 2023-09-13 12:29:03.989
246.0, -42.84829412082364, 187500.0, 187500.0, 187500.0, 187500.0, 187500.0, 187500.0, 187500.0, 0.032, -0.006, 1.006, 192.0, 1.0, 0.0, 255.0, 208.0, 31.0, 112.0, 0.0, 0.0, 0.0, 1.6946009439891365E9, 0.0, 2023-09-13 12:29:03.989
247.0, -42.7141836540918, 187500.0, 187500.0, 187500.0, 187500.0, 187500.0, 187500.0, 187500.0, 0.032, -0.006, 1.006, 192.0, 0.0, 0.0, 0.0, 0.0, 0.0, 0.0, 0.0, 0.0, 0.0, 1.6946009439891796E9, 0.0, 2023-09-13 12:29:03.989
248.0, -37.3497649848181, 187500.0, 187500.0, 187500.0, 187500.0, 187500.0, 187500.0, 187500.0, 0.032, -0.006, 1.006, 192.0, 0.0, 0.0, 0.0, 0.0, 0.0, 0.0, 0.0, 0.0, 0.0, 1.6946009439892213E9, 0.0, 2023-09-13 12:29:03.989
249.0, -16.853215319301526, 187500.0, 187500.0, 187500.0, 187500.0, 187500.0, 187500.0, 187500.0, 0.032, -0.006, 1.006, 192.0, 0.0, 0.0, 0.0, 0.0, 0.0, 0.0, 0.0, 0.0, 0.0, 1.6946009439892628E9, 0.0, 2023-09-13 12:29:03.989
250.0, -12.494625150516647, 187500.0, 187500.0, 187500.0, 187500.0, 187500.0, 187500.0, 187500.0, 0.032, -0.006, 1.006, 192.0, 0.0, 0.0, 0.0, 0.0, 0.0, 0.0, 0.0, 0.0, 0.0, 1.694600943989303E9, 0.0, 2023-09-13 12:29:03.989
251.0, -12.293459450418885, 187500.0, 187500.0, 187500.0, 187500.0, 187500.0, 187500.0, 187500.0, 0.032, -0.006, 1.006, 192.0, 0.0, 0.0, 0.0, 0.0, 0.0, 0.0, 0.0, 0.0, 0.0, 1.694600943989344E9, 0.0, 2023-09-13 12:29:03.989
252.0, -17.791988586424424, 187500.0, 187500.0, 187500.0, 187500.0, 187500.0, 187500.0, 187500.0, 0.032, -0.006, 1.006, 192.0, 0.0, 0.0, 0.0, 0.0, 0.0, 0.0, 0.0, 0.0, 0.0, 1.6946009439893842E9, 0.0, 2023-09-13 12:29:03.989
253.0, -38.04266906293262, 187500.0, 187500.0, 187500.0, 187500.0, 187500.0, 187500.0, 187500.0, 0.032, -0.006, 1.006, 192.0, 0.0, 0.0, 0.0, 0.0, 0.0, 0.0, 0.0, 0.0, 0.0, 1.6946009439894235E9, 0.0, 2023-09-13 12:29:03.989
254.0, -42.736535398547105, 187500.0, 187500.0, 187500.0, 187500.0, 187500.0, 187500.0, 187500.0, 0.032, -0.006, 1.006, 192.0, 0.0, 0.0, 0.0, 0.0, 0.0, 0.0, 0.0, 0.0, 0.0, 1.6946009439894652E9, 0.0, 2023-09-13 12:29:03.989
255.0, -42.69183190963649, 187500.0, 187500.0, 187500.0, 187500.0, 187500.0, 187500.0, 187500.0, 0.032, -0.006, 1.006, 192.0, 0.0, 0.0, 0.0, 0.0, 0.0, 0.0, 0.0, 0.0, 0.0, 1.6946009439895077E9, 0.0, 2023-09-13 12:29:03.989
0.0, -37.48387545154994, 187500.0, 187500.0, 187500.0, 187500.0, 187500.0, 187500.0, 187500.0, 0.028, -0.012, 1.006, 192.0, 0.0, 224.0, 255.0, 160.0, 31.0, 112.0, 0.0, 0.0, 0.0, 1.6946009439895499E9, 0.0, 2023-09-13 12:29:03.989
1.0, -17.300250208407668, 187500.0, 187500.0, 187500.0, 187500.0, 187500.0, 187500.0, 187500.0, 0.028, -0.012, 1.006, 192.0, 0.0, 0.0, 0.0, 0.0, 0.0, 0.0, 0.0, 0.0, 0.0, 1.6946009439895923E9, 0.0, 2023-09-13 12:29:03.989
2.0, -12.584032128337876, 187500.0, 187500.0, 187500.0, 187500.0, 187500.0, 187500.0, 187500.0, 0.028, -0.012, 1.006, 192.0, 0.0, 0.0, 0.0, 0.0, 0.0, 0.0, 0.0, 0.0, 0.0, 1.694600943989636E9, 0.0, 2023-09-13 12:29:03.989
3.0, -12.47227340606134, 187500.0, 187500.0, 187500.0, 187500.0, 187500.0, 187500.0, 187500.0, 0.028, -0.012, 1.006, 192.0, 0.0, 0.0, 0.0, 0.0, 0.0, 0.0, 0.0, 0.0, 0.0, 1.6946009439896781E9, 0.0, 2023-09-13 12:29:03.989
4.0, -17.680229864147886, 187500.0, 187500.0, 187500.0, 187500.0, 187500.0, 187500.0, 187500.0, 0.028, -0.012, 1.006, 192.0, 0.0, 0.0, 0.0, 0.0, 0.0, 0.0, 0.0, 0.0, 0.0, 1.69460094398972E9, 0.0, 2023-09-13 12:29:03.989
5.0, -37.90855859620078, 187500.0, 187500.0, 187500.0, 187500.0, 187500.0, 187500.0, 187500.0, 0.028, -0.012, 1.006, 192.0, 0.0, 0.0, 0.0, 0.0, 0.0, 0.0, 0.0, 0.0, 0.0, 1.6946009439898205E9, 0.0, 2023-09-13 12:29:03.989
6.0, -42.7141836540918, 187500.0, 187500.0, 187500.0, 187500.0, 187500.0, 187500.0, 187500.0, 0.028, -0.012, 1.006, 192.0, 0.0, 0.0, 0.0, 0.0, 0.0, 0.0, 0.0, 0.0, 0.0, 1.6946009439898653E9, 0.0, 2023-09-13 12:29:03.989
7.0, -42.803590631913025, 187500.0, 187500.0, 187500.0, 187500.0, 187500.0, 187500.0, 187500.0, 0.028, -0.012, 1.006, 192.0, 0.0, 0.0, 0.0, 0.0, 0.0, 0.0, 0.0, 0.0, 0.0, 1.6946009439899094E9, 0.0, 2023-09-13 12:29:03.989
8.0, -37.48387545154994, 187500.0, 187500.0, 187500.0, 187500.0, 187500.0, 187500.0, 187500.0, 0.028, -0.012, 1.006, 192.0, 0.0, 0.0, 0.0, 0.0, 0.0, 0.0, 0.0, 0.0, 0.0, 1.6946009439899528E9, 0.0, 2023-09-13 12:29:03.989
9.0, -17.412008930684202, 187500.0, 187500.0, 187500.0, 187500.0, 187500.0, 187500.0, 187500.0, 0.028, -0.012, 1.006, 192.0, 0.0, 0.0, 0.0, 0.0, 0.0, 0.0, 0.0, 0.0, 0.0, 1.6946009439899971E9, 0.0, 2023-09-13 12:29:03.989
10.0, -12.47227340606134, 187500.0, 187500.0, 187500.0, 187500.0, 187500.0, 187500.0, 187500.0, 0.032, -0.014, 1.006, 192.0, 1.0, 0.0, 255.0, 144.0, 31.0, 112.0, 0.0, 0.0, 0.0, 1.6946009439900444E9, 0.0, 2023-09-13 12:29:03.990
11.0, -12.606383872793183, 187500.0, 187500.0, 187500.0, 187500.0, 187500.0, 187500.0, 187500.0, 0.032, -0.014, 1.006, 192.0, 0.0, 0.0, 0.0, 0.0, 0.0, 0.0, 0.0, 0.0, 0.0, 1.6946009439900873E9, 0.0, 2023-09-13 12:29:03.990
12.0, -17.94845079761157, 187500.0, 187500.0, 187500.0, 187500.0, 187500.0, 187500.0, 187500.0, 0.032, -0.014, 1.006, 192.0, 0.0, 0.0, 0.0, 0.0, 0.0, 0.0, 0.0, 0.0, 0.0, 1.6946009439901273E9, 0.0, 2023-09-13 12:29:03.990
13.0, -37.88620685174547, 187500.0, 187500.0, 187500.0, 187500.0, 187500.0, 187500.0, 187500.0, 0.032, -0.014, 1.006, 192.0, 0.0, 0.0, 0.0, 0.0, 0.0, 0.0, 0.0, 0.0, 0.0, 1.6946009439901683E9, 0.0, 2023-09-13 12:29:03.990
14.0, -42.58007318735996, 187500.0, 187500.0, 187500.0, 187500.0, 187500.0, 187500.0, 187500.0, 0.032, -0.014, 1.006, 192.0, 0.0, 0.0, 0.0, 0.0, 0.0, 0.0, 0.0, 0.0, 0.0, 1.6946009439902089E9, 0.0, 2023-09-13 12:29:03.990
15.0, -42.602424931815264, 187500.0, 187500.0, 187500.0, 187500.0, 187500.0, 187500.0, 187500.0, 0.032, -0.014, 1.006, 192.0, 0.0, 0.0, 0.0, 0.0, 0.0, 0.0, 0.0, 0.0, 0.0, 1.6946009439902492E9, 0.0, 2023-09-13 12:29:03.990
16.0, -37.48387545154994, 187500.0, 187500.0, 187500.0, 187500.0, 187500.0, 187500.0, 187500.0, 0.032, -0.014, 1.006, 192.0, 0.0, 0.0, 0.0, 0.0, 0.0, 0.0, 0.0, 0.0, 0.0, 1.6946009439902928E9, 0.0, 2023-09-13 12:29:03.990
17.0, -17.18849148613113, 187500.0, 187500.0, 187500.0, 187500.0, 187500.0, 187500.0, 187500.0, 0.032, -0.014, 1.006, 192.0, 0.0, 0.0, 0.0, 0.0, 0.0, 0.0, 0.0, 0.0, 0.0, 1.6946009439903364E9, 0.0, 2023-09-13 12:29:03.990
18.0, -12.360514683784805, 187500.0, 187500.0, 187500.0, 187500.0, 187500.0, 187500.0, 187500.0, 0.032, -0.014, 1.006, 192.0, 0.0, 0.0, 0.0, 0.0, 0.0, 0.0, 0.0, 0.0, 0.0, 1.694600943990382E9, 0.0, 2023-09-13 12:29:03.990
19.0, -12.315811194874192, 187500.0, 187500.0, 187500.0, 187500.0, 187500.0, 187500.0, 187500.0, 0.032, -0.014, 1.006, 192.0, 0.0, 0.0, 0.0, 0.0, 0.0, 0.0, 0.0, 0.0, 0.0, 1.6946009439904249E9, 0.0, 2023-09-13 12:29:03.990
20.0, -17.680229864147886, 187500.0, 187500.0, 187500.0, 187500.0, 187500.0, 187500.0, 187500.0, 0.028, -0.01, 1.006, 192.0, 0.0, 224.0, 255.0, 176.0, 31.0, 112.0, 0.0, 0.0, 0.0, 1.6946009439905207E9, 0.0, 2023-09-13 12:29:03.990
21.0, -38.243834763030385, 187500.0, 187500.0, 187500.0, 187500.0, 187500.0, 187500.0, 187500.0, 0.028, -0.01, 1.006, 192.0, 0.0, 0.0, 0.0, 0.0, 0.0, 0.0, 0.0, 0.0, 0.0, 1.6946009439905653E9, 0.0, 2023-09-13 12:29:03.990
22.0, -42.62477667627057, 187500.0, 187500.0, 187500.0, 187500.0, 187500.0, 187500.0, 187500.0, 0.028, -0.01, 1.006, 192.0, 0.0, 0.0, 0.0, 0.0, 0.0, 0.0, 0.0, 0.0, 0.0, 1.694600943990606E9, 0.0, 2023-09-13 12:29:03.990
23.0, -42.35655574280688, 187500.0, 187500.0, 187500.0, 187500.0, 187500.0, 187500.0, 187500.0, 0.028, -0.01, 1.006, 192.0, 0.0, 0.0, 0.0, 0.0, 0.0, 0.0, 0.0, 0.0, 0.0, 1.6946009439906442E9, 0.0, 2023-09-13 12:29:03.990
24.0, -37.394468473728715, 187500.0, 187500.0, 187500.0, 187500.0, 187500.0, 187500.0, 187500.0, 0.028, -0.01, 1.006, 192.0, 0.0, 0.0, 0.0, 0.0, 0.0, 0.0, 0.0, 0.0, 0.0, 1.6946009439906836E9, 0.0, 2023-09-13 12:29:03.990
25.0, -17.25554671949705, 187500.0, 187500.0, 187500.0, 187500.0, 187500.0, 187500.0, 187500.0, 0.028, -0.01, 1.006, 192.0, 0.0, 0.0, 0.0, 0.0, 0.0, 0.0, 0.0, 0.0, 0.0, 1.6946009439907324E9, 0.0, 2023-09-13 12:29:03.990
26.0, -12.315811194874192, 187500.0, 187500.0, 187500.0, 187500.0, 187500.0, 187500.0, 187500.0, 0.028, -0.01, 1.006, 192.0, 0.0, 0.0, 0.0, 0.0, 0.0, 0.0, 0.0, 0.0, 0.0, 1.6946009439907854E9, 0.0, 2023-09-13 12:29:03.990
27.0, -12.427569917150727, 187500.0, 187500.0, 187500.0, 187500.0, 187500.0, 187500.0, 187500.0, 0.028, -0.01, 1.006, 192.0, 0.0, 0.0, 0.0, 0.0, 0.0, 0.0, 0.0, 0.0, 0.0, 1.6946009439908333E9, 0.0, 2023-09-13 12:29:03.990
28.0, -17.702581608603193, 187500.0, 187500.0, 187500.0, 187500.0, 187500.0, 187500.0, 187500.0, 0.028, -0.01, 1.006, 192.0, 0.0, 0.0, 0.0, 0.0, 0.0, 0.0, 0.0, 0.0, 0.0, 1.6946009439908774E9, 0.0, 2023-09-13 12:29:03.990
29.0, -37.86385510729016, 187500.0, 187500.0, 187500.0, 187500.0, 187500.0, 187500.0, 187500.0, 0.028, -0.01, 1.006, 192.0, 0.0, 0.0, 0.0, 0.0, 0.0, 0.0, 0.0, 0.0, 0.0, 1.6946009439909227E9, 0.0, 2023-09-13 12:29:03.990
30.0, -42.78123888745772, 187500.0, 187500.0, 187500.0, 187500.0, 187500.0, 187500.0, 187500.0, 0.032, -0.008, 1.006, 192.0, 1.0, 0.0, 255.0, 192.0, 31.0, 112.0, 0.0, 0.0, 0.0, 1.694600943990968E9, 0.0, 2023-09-13 12:29:03.990
31.0, -42.89299760973425, 187500.0, 187500.0, 187500.0, 187500.0, 187500.0, 187500.0, 187500.0, 0.032, -0.008, 1.006, 192.0, 0.0, 0.0, 0.0, 0.0, 0.0, 0.0, 0.0, 0.0, 0.0, 1.6946009439910178E9, 0.0, 2023-09-13 12:29:03.991
32.0, -37.3497649848181, 187500.0, 187500.0, 187500.0, 187500.0, 187500.0, 187500.0, 187500.0, 0.032, -0.008, 1.006, 192.0, 0.0, 0.0, 0.0, 0.0, 0.0, 0.0, 0.0, 0.0, 0.0, 1.6946009439910617E9, 0.0, 2023-09-13 12:29:03.991
33.0, -17.18849148613113, 187500.0, 187500.0, 187500.0, 187500.0, 187500.0, 187500.0, 187500.0, 0.032, -0.008, 1.006, 192.0, 0.0, 0.0, 0.0, 0.0, 0.0, 0.0, 0.0, 0.0, 0.0, 1.694600943991104E9, 0.0, 2023-09-13 12:29:03.991
34.0, -12.271107705963578, 187500.0, 187500.0, 187500.0, 187500.0, 187500.0, 187500.0, 187500.0, 0.032, -0.008, 1.006, 192.0, 0.0, 0.0, 0.0, 0.0, 0.0, 0.0, 0.0, 0.0, 0.0, 1.6946009439911523E9, 0.0, 2023-09-13 12:29:03.991
35.0, -12.159348983687043, 187500.0, 187500.0, 187500.0, 187500.0, 187500.0, 187500.0, 187500.0, 0.032, -0.008, 1.006, 192.0, 0.0, 0.0, 0.0, 0.0, 0.0, 0.0, 0.0, 0.0, 0.0, 1.6946009439911976E9, 0.0, 2023-09-13 12:29:03.991
36.0, -17.769636841969113, 187500.0, 187500.0, 187500.0, 187500.0, 187500.0, 187500.0, 187500.0, 0.032, -0.008, 1.006, 192.0, 0.0, 0.0, 0.0, 0.0, 0.0, 0.0, 0.0, 0.0, 0.0, 1.6946009439913163E9, 0.0, 2023-09-13 12:29:03.991
37.0, -37.930910340656084, 187500.0, 187500.0, 187500.0, 187500.0, 187500.0, 187500.0, 187500.0, 0.032, -0.008, 1.006, 192.0, 0.0, 0.0, 0.0, 0.0, 0.0, 0.0, 0.0, 0.0, 0.0, 1.694600943991362E9, 0.0, 2023-09-13 12:29:03.991
38.0, -42.64712842072588, 187500.0, 187500.0, 187500.0, 187500.0, 187500.0, 187500.0, 187500.0, 0.032, -0.008, 1.006, 192.0, 0.0, 0.0, 0.0, 0.0, 0.0, 0.0, 0.0, 0.0, 0.0, 1.6946009439914048E9, 0.0, 2023-09-13 12:29:03.991
39.0, -42.602424931815264, 187500.0, 187500.0, 187500.0, 187500.0, 187500.0, 187500.0, 187500.0, 0.028, -0.002, 1.008, 192.0, 0.0, 224.0, 255.0, 240.0, 31.0, 128.0, 0.0, 0.0, 0.0, 1.6946009439914477E9, 0.0, 2023-09-13 12:29:03.991
40.0, -37.50622719600525, 187500.0, 187500.0, 187500.0, 187500.0, 187500.0, 187500.0, 187500.0, 0.028, -0.002, 1.008, 192.0, 0.0, 0.0, 0.0, 0.0, 0.0, 0.0, 0.0, 0.0, 0.0, 1.6946009439914927E9, 0.0, 2023-09-13 12:29:03.991
41.0, -17.523767652960736, 187500.0, 187500.0, 187500.0, 187500.0, 187500.0, 187500.0, 187500.0, 0.028, -0.002, 1.008, 192.0, 0.0, 0.0, 0.0, 0.0, 0.0, 0.0, 0.0, 0.0, 0.0, 1.6946009439915335E9, 0.0, 2023-09-13 12:29:03.991
42.0, -12.427569917150727, 187500.0, 187500.0, 187500.0, 187500.0, 187500.0, 187500.0, 187500.0, 0.028, -0.002, 1.008, 192.0, 0.0, 0.0, 0.0, 0.0, 0.0, 0.0, 0.0, 0.0, 0.0, 1.6946009439915743E9, 0.0, 2023-09-13 12:29:03.991
43.0, -12.427569917150727, 187500.0, 187500.0, 187500.0, 187500.0, 187500.0, 187500.0, 187500.0, 0.028, -0.002, 1.008, 192.0, 0.0, 0.0, 0.0, 0.0, 0.0, 0.0, 0.0, 0.0, 0.0, 1.6946009439916148E9, 0.0, 2023-09-13 12:29:03.991
44.0, -17.791988586424424, 187500.0, 187500.0, 187500.0, 187500.0, 187500.0, 187500.0, 187500.0, 0.028, -0.002, 1.008, 192.0, 0.0, 0.0, 0.0, 0.0, 0.0, 0.0, 0.0, 0.0, 0.0, 1.6946009439916556E9, 0.0, 2023-09-13 12:29:03.991
45.0, -38.243834763030385, 187500.0, 187500.0, 187500.0, 187500.0, 187500.0, 187500.0, 187500.0, 0.028, -0.002, 1.008, 192.0, 0.0, 0.0, 0.0, 0.0, 0.0, 0.0, 0.0, 0.0, 0.0, 1.6946009439916961E9, 0.0, 2023-09-13 12:29:03.991
46.0, -42.669480165181184, 187500.0, 187500.0, 187500.0, 187500.0, 187500.0, 187500.0, 187500.0, 0.028, -0.002, 1.008, 192.0, 0.0, 0.0, 0.0, 0.0, 0.0, 0.0, 0.0, 0.0, 0.0, 1.694600943991737E9, 0.0, 2023-09-13 12:29:03.991
47.0, -42.78123888745772, 187500.0, 187500.0, 187500.0, 187500.0, 187500.0, 187500.0, 187500.0, 0.028, -0.002, 1.008, 192.0, 0.0, 0.0, 0.0, 0.0, 0.0, 0.0, 0.0, 0.0, 0.0, 1.694600943991778E9, 0.0, 2023-09-13 12:29:03.991
48.0, -37.37211672927341, 187500.0, 187500.0, 187500.0, 187500.0, 187500.0, 187500.0, 187500.0, 0.028, -0.002, 1.008, 192.0, 0.0, 0.0, 0.0, 0.0, 0.0, 0.0, 0.0, 0.0, 0.0, 1.694600943991825E9, 0.0, 2023-09-13 12:29:03.991
49.0, -17.143787997220517, 187500.0, 187500.0, 187500.0, 187500.0, 187500.0, 187500.0, 187500.0, 0.03, 0.0, 1.006, 192.0, 0.0, 240.0, 0.0, 0.0, 31.0, 112.0, 0.0, 0.0, 0.0, 1.6946009439918776E9, 0.0, 2023-09-13 12:29:03.991
50.0, -12.204052472597656, 187500.0, 187500.0, 187500.0, 187500.0, 187500.0, 187500.0, 187500.0, 0.03, 0.0, 1.006, 192.0, 0.0, 0.0, 0.0, 0.0, 0.0, 0.0, 0.0, 0.0, 0.0, 1.6946009439919257E9, 0.0, 2023-09-13 12:29:03.991
51.0, -12.40521817269542, 187500.0, 187500.0, 187500.0, 187500.0, 187500.0, 187500.0, 187500.0, 0.03, 0.0, 1.006, 192.0, 0.0, 0.0, 0.0, 0.0, 0.0, 0.0, 0.0, 0.0, 0.0, 1.6946009439920385E9, 0.0, 2023-09-13 12:29:03.992
52.0, -18.12726475325403, 187500.0, 187500.0, 187500.0, 187500.0, 187500.0, 187500.0, 187500.0, 0.03, 0.0, 1.006, 192.0, 0.0, 0.0, 0.0, 0.0, 0.0, 0.0, 0.0, 0.0, 0.0, 1.6946009439920807E9, 0.0, 2023-09-13 12:29:03.992
53.0, -38.02031731847731, 187500.0, 187500.0, 187500.0, 187500.0, 187500.0, 187500.0, 187500.0, 0.03, 0.0, 1.006, 192.0, 0.0, 0.0, 0.0, 0.0, 0.0, 0.0, 0.0, 0.0, 0.0, 1.694600943992128E9, 0.0, 2023-09-13 12:29:03.992
54.0, -42.736535398547105, 187500.0, 187500.0, 187500.0, 187500.0, 187500.0, 187500.0, 187500.0, 0.03, 0.0, 1.006, 192.0, 0.0, 0.0, 0.0, 0.0, 0.0, 0.0, 0.0, 0.0, 0.0, 1.6946009439921713E9, 0.0, 2023-09-13 12:29:03.992
55.0, -42.84829412082364, 187500.0, 187500.0, 187500.0, 187500.0, 187500.0, 187500.0, 187500.0, 0.03, 0.0, 1.006, 192.0, 0.0, 0.0, 0.0, 0.0, 0.0, 0.0, 0.0, 0.0, 0.0, 1.694600943992214E9, 0.0, 2023-09-13 12:29:03.992
56.0, -37.528578940460555, 187500.0, 187500.0, 187500.0, 187500.0, 187500.0, 187500.0, 187500.0, 0.03, 0.0, 1.006, 192.0, 0.0, 0.0, 0.0, 0.0, 0.0, 0.0, 0.0, 0.0, 0.0, 1.6946009439922574E9, 0.0, 2023-09-13 12:29:03.992
57.0, -16.942622297122753, 187500.0, 187500.0, 187500.0, 187500.0, 187500.0, 187500.0, 187500.0, 0.03, 0.0, 1.006, 192.0, 0.0, 0.0, 0.0, 0.0, 0.0, 0.0, 0.0, 0.0, 0.0, 1.6946009439923003E9, 0.0, 2023-09-13 12:29:03.992
58.0, -12.382866428240114, 187500.0, 187500.0, 187500.0, 187500.0, 187500.0, 187500.0, 187500.0, 0.03, 0.0, 1.006, 192.0, 0.0, 0.0, 0.0, 0.0, 0.0, 0.0, 0.0, 0.0, 0.0, 1.6946009439923432E9, 0.0, 2023-09-13 12:29:03.992
59.0, -12.338162939329498, 187500.0, 187500.0, 187500.0, 187500.0, 187500.0, 187500.0, 187500.0, 0.028, -0.004, 1.004, 192.0, 0.0, 224.0, 255.0, 224.0, 31.0, 96.0, 0.0, 0.0, 0.0, 1.694600943992386E9, 0.0, 2023-09-13 12:29:03.992
60.0, -17.769636841969113, 187500.0, 187500.0, 187500.0, 187500.0, 187500.0, 187500.0, 187500.0, 0.028, -0.004, 1.004, 192.0, 0.0, 0.0, 0.0, 0.0, 0.0, 0.0, 0.0, 0.0, 0.0, 1.6946009439924312E9, 0.0, 2023-09-13 12:29:03.992
61.0, -38.08737255184324, 187500.0, 187500.0, 187500.0, 187500.0, 187500.0, 187500.0, 187500.0, 0.028, -0.004, 1.004, 192.0, 0.0, 0.0, 0.0, 0.0, 0.0, 0.0, 0.0, 0.0, 0.0, 1.6946009439924743E9, 0.0, 2023-09-13 12:29:03.992
62.0, -42.669480165181184, 187500.0, 187500.0, 187500.0, 187500.0, 187500.0, 187500.0, 187500.0, 0.028, -0.004, 1.004, 192.0, 0.0, 0.0, 0.0, 0.0, 0.0, 0.0, 0.0, 0.0, 0.0, 1.6946009439925177E9, 0.0, 2023-09-13 12:29:03.992
63.0, -42.64712842072588, 187500.0, 187500.0, 187500.0, 187500.0, 187500.0, 187500.0, 187500.0, 0.028, -0.004, 1.004, 192.0, 0.0, 0.0, 0.0, 0.0, 0.0, 0.0, 0.0, 0.0, 0.0, 1.6946009439925609E9, 0.0, 2023-09-13 12:29:03.992
64.0, -37.461523707094635, 187500.0, 187500.0, 187500.0, 187500.0, 187500.0, 187500.0, 187500.0, 0.028, -0.004, 1.004, 192.0, 0.0, 0.0, 0.0, 0.0, 0.0, 0.0, 0.0, 0.0, 0.0, 1.694600943992604E9, 0.0, 2023-09-13 12:29:03.992
65.0, -17.143787997220517, 187500.0, 187500.0, 187500.0, 187500.0, 187500.0, 187500.0, 187500.0, 0.028, -0.004, 1.004, 192.0, 0.0, 0.0, 0.0, 0.0, 0.0, 0.0, 0.0, 0.0, 0.0, 1.694600943992648E9, 0.0, 2023-09-13 12:29:03.992
66.0, -12.427569917150727, 187500.0, 187500.0, 187500.0, 187500.0, 187500.0, 187500.0, 187500.0, 0.028, -0.004, 1.004, 192.0, 0.0, 0.0, 0.0, 0.0, 0.0, 0.0, 0.0, 0.0, 0.0, 1.6946009439926915E9, 0.0, 2023-09-13 12:29:03.992
67.0, -12.449921661606034, 187500.0, 187500.0, 187500.0, 187500.0, 187500.0, 187500.0, 187500.0, 0.028, -0.004, 1.004, 192.0, 0.0, 0.0, 0.0, 0.0, 0.0, 0.0, 0.0, 0.0, 0.0, 1.6946009439927852E9, 0.0, 2023-09-13 12:29:03.992
68.0, -17.859043819790344, 187500.0, 187500.0, 187500.0, 187500.0, 187500.0, 187500.0, 187500.0, 0.028, -0.004, 1.004, 192.0, 0.0, 0.0, 0.0, 0.0, 0.0, 0.0, 0.0, 0.0, 0.0, 1.6946009439928305E9, 0.0, 2023-09-13 12:29:03.992
69.0, -38.109724296298545, 187500.0, 187500.0, 187500.0, 187500.0, 187500.0, 187500.0, 187500.0, 0.032, 0.0, 1.002, 192.0, 1.0, 0.0, 0.0, 0.0, 31.0, 80.0, 0.0, 0.0, 0.0, 1.6946009439928749E9, 0.0, 2023-09-13 12:29:03.992
70.0, -42.75888714300241, 187500.0, 187500.0, 187500.0, 187500.0, 187500.0, 187500.0, 187500.0, 0.032, 0.0, 1.002, 192.0, 0.0, 0.0, 0.0, 0.0, 0.0, 0.0, 0.0, 0.0, 0.0, 1.6946009439929209E9, 0.0, 2023-09-13 12:29:03.992
71.0, -42.937701098644865, 187500.0, 187500.0, 187500.0, 187500.0, 187500.0, 187500.0, 187500.0, 0.032, 0.0, 1.002, 192.0, 0.0, 0.0, 0.0, 0.0, 0.0, 0.0, 0.0, 0.0, 0.0, 1.6946009439929645E9, 0.0, 2023-09-13 12:29:03.992
72.0, -37.707392896103016, 187500.0, 187500.0, 187500.0, 187500.0, 187500.0, 187500.0, 187500.0, 0.032, 0.0, 1.002, 192.0, 0.0, 0.0, 0.0, 0.0, 0.0, 0.0, 0.0, 0.0, 0.0, 1.6946009439930067E9, 0.0, 2023-09-13 12:29:03.993
73.0, -17.099084508309904, 187500.0, 187500.0, 187500.0, 187500.0, 187500.0, 187500.0, 187500.0, 0.032, 0.0, 1.002, 192.0, 0.0, 0.0, 0.0, 0.0, 0.0, 0.0, 0.0, 0.0, 0.0, 1.6946009439930472E9, 0.0, 2023-09-13 12:29:03.993
74.0, -12.293459450418885, 187500.0, 187500.0, 187500.0, 187500.0, 187500.0, 187500.0, 187500.0, 0.032, 0.0, 1.002, 192.0, 0.0, 0.0, 0.0, 0.0, 0.0, 0.0, 0.0, 0.0, 0.0, 1.6946009439930885E9, 0.0, 2023-09-13 12:29:03.993
75.0, -12.360514683784805, 187500.0, 187500.0, 187500.0, 187500.0, 187500.0, 187500.0, 187500.0, 0.032, 0.0, 1.002, 192.0, 0.0, 0.0, 0.0, 0.0, 0.0, 0.0, 0.0, 0.0, 0.0, 1.6946009439931293E9, 0.0, 2023-09-13 12:29:03.993
76.0, -18.082561264343415, 187500.0, 187500.0, 187500.0, 187500.0, 187500.0, 187500.0, 187500.0, 0.032, 0.0, 1.002, 192.0, 0.0, 0.0, 0.0, 0.0, 0.0, 0.0, 0.0, 0.0, 0.0, 1.694600943993171E9, 0.0, 2023-09-13 12:29:03.993
77.0, -38.04266906293262, 187500.0, 187500.0, 187500.0, 187500.0, 187500.0, 187500.0, 187500.0, 0.032, 0.0, 1.002, 192.0, 0.0, 0.0, 0.0, 0.0, 0.0, 0.0, 0.0, 0.0, 0.0, 1.694600943993214E9, 0.0, 2023-09-13 12:29:03.993
78.0, -42.37890748726219, 187500.0, 187500.0, 187500.0, 187500.0, 187500.0, 187500.0, 187500.0, 0.032, 0.0, 1.002, 192.0, 0.0, 0.0, 0.0, 0.0, 0.0, 0.0, 0.0, 0.0, 0.0, 1.6946009439932568E9, 0.0, 2023-09-13 12:29:03.993
79.0, -42.7141836540918, 187500.0, 187500.0, 187500.0, 187500.0, 187500.0, 187500.0, 187500.0, 0.028, 0.0, 1.008, 192.0, 0.0, 224.0, 0.0, 0.0, 31.0, 128.0, 0.0, 0.0, 0.0, 1.6946009439932995E9, 0.0, 2023-09-13 12:29:03.993
80.0, -37.59563417382648, 187500.0, 187500.0, 187500.0, 187500.0, 187500.0, 187500.0, 187500.0, 0.028, 0.0, 1.008, 192.0, 0.0, 0.0, 0.0, 0.0, 0.0, 0.0, 0.0, 0.0, 0.0, 1.6946009439933443E9, 0.0, 2023-09-13 12:29:03.993
81.0, -17.12143625276521, 187500.0, 187500.0, 187500.0, 187500.0, 187500.0, 187500.0, 187500.0, 0.028, 0.0, 1.008, 192.0, 0.0, 0.0, 0.0, 0.0, 0.0, 0.0, 0.0, 0.0, 0.0, 1.6946009439933872E9, 0.0, 2023-09-13 12:29:03.993
82.0, -12.494625150516647, 187500.0, 187500.0, 187500.0, 187500.0, 187500.0, 187500.0, 187500.0, 0.028, 0.0, 1.008, 192.0, 0.0, 0.0, 0.0, 0.0, 0.0, 0.0, 0.0, 0.0, 0.0, 1.6946009439934824E9, 0.0, 2023-09-13 12:29:03.993
83.0, -12.382866428240114, 187500.0, 187500.0, 187500.0, 187500.0, 187500.0, 187500.0, 187500.0, 0.028, 0.0, 1.008, 192.0, 0.0, 0.0, 0.0, 0.0, 0.0, 0.0, 0.0, 0.0, 0.0, 1.6946009439935267E9, 0.0, 2023-09-13 12:29:03.993
84.0, -17.903747308700957, 187500.0, 187500.0, 187500.0, 187500.0, 187500.0, 187500.0, 187500.0, 0.028, 0.0, 1.008, 192.0, 0.0, 0.0, 0.0, 0.0, 0.0, 0.0, 0.0, 0.0, 0.0, 1.6946009439935713E9, 0.0, 2023-09-13 12:29:03.993
85.0, -38.06502080738793, 187500.0, 187500.0, 187500.0, 187500.0, 187500.0, 187500.0, 187500.0, 0.028, 0.0, 1.008, 192.0, 0.0, 0.0, 0.0, 0.0, 0.0, 0.0, 0.0, 0.0, 0.0, 1.6946009439936142E9, 0.0, 2023-09-13 12:29:03.993
86.0, -42.736535398547105, 187500.0, 187500.0, 187500.0, 187500.0, 187500.0, 187500.0, 187500.0, 0.028, 0.0, 1.008, 192.0, 0.0, 0.0, 0.0, 0.0, 0.0, 0.0, 0.0, 0.0, 0.0, 1.694600943993657E9, 0.0, 2023-09-13 12:29:03.993
87.0, -42.89299760973425, 187500.0, 187500.0, 187500.0, 187500.0, 187500.0, 187500.0, 187500.0, 0.028, 0.0, 1.008, 192.0, 0.0, 0.0, 0.0, 0.0, 0.0, 0.0, 0.0, 0.0, 0.0, 1.6946009439936996E9, 0.0, 2023-09-13 12:29:03.993
88.0, -37.50622719600525, 187500.0, 187500.0, 187500.0, 187500.0, 187500.0, 187500.0, 187500.0, 0.028, 0.0, 1.008, 192.0, 0.0, 0.0, 0.0, 0.0, 0.0, 0.0, 0.0, 0.0, 0.0, 1.6946009439937427E9, 0.0, 2023-09-13 12:29:03.993
89.0, -17.05438101939929, 187500.0, 187500.0, 187500.0, 187500.0, 187500.0, 187500.0, 187500.0, 0.03, -0.004, 1.012, 192.0, 0.0, 240.0, 255.0, 224.0, 31.0, 160.0, 0.0, 0.0, 0.0, 1.6946009439937856E9, 0.0, 2023-09-13 12:29:03.993
90.0, -12.40521817269542, 187500.0, 187500.0, 187500.0, 187500.0, 187500.0, 187500.0, 187500.0, 0.03, -0.004, 1.012, 192.0, 0.0, 0.0, 0.0, 0.0, 0.0, 0.0, 0.0, 0.0, 0.0, 1.6946009439938312E9, 0.0, 2023-09-13 12:29:03.993
91.0, -12.919308295167482, 187500.0, 187500.0, 187500.0, 187500.0, 187500.0, 187500.0, 187500.0, 0.03, -0.004, 1.012, 192.0, 0.0, 0.0, 0.0, 0.0, 0.0, 0.0, 0.0, 0.0, 0.0, 1.6946009439938762E9, 0.0, 2023-09-13 12:29:03.993
92.0, -18.082561264343415, 187500.0, 187500.0, 187500.0, 187500.0, 187500.0, 187500.0, 187500.0, 0.03, -0.004, 1.012, 192.0, 0.0, 0.0, 0.0, 0.0, 0.0, 0.0, 0.0, 0.0, 0.0, 1.6946009439939234E9, 0.0, 2023-09-13 12:29:03.993
93.0, -37.997965574022004, 187500.0, 187500.0, 187500.0, 187500.0, 187500.0, 187500.0, 187500.0, 0.03, -0.004, 1.012, 192.0, 0.0, 0.0, 0.0, 0.0, 0.0, 0.0, 0.0, 0.0, 0.0, 1.6946009439939728E9, 0.0, 2023-09-13 12:29:03.993
94.0, -42.84829412082364, 187500.0, 187500.0, 187500.0, 187500.0, 187500.0, 187500.0, 187500.0, 0.03, -0.004, 1.012, 192.0, 0.0, 0.0, 0.0, 0.0, 0.0, 0.0, 0.0, 0.0, 0.0, 1.6946009439940183E9, 0.0, 2023-09-13 12:29:03.994
95.0, -42.78123888745772, 187500.0, 187500.0, 187500.0, 187500.0, 187500.0, 187500.0, 187500.0, 0.03, -0.004, 1.012, 192.0, 0.0, 0.0, 0.0, 0.0, 0.0, 0.0, 0.0, 0.0, 0.0, 1.6946009439940608E9, 0.0, 2023-09-13 12:29:03.994
96.0, -37.528578940460555, 187500.0, 187500.0, 187500.0, 187500.0, 187500.0, 187500.0, 187500.0, 0.03, -0.004, 1.012, 192.0, 0.0, 0.0, 0.0, 0.0, 0.0, 0.0, 0.0, 0.0, 0.0, 1.6946009439941056E9, 0.0, 2023-09-13 12:29:03.994
97.0, -17.34495369731828, 187500.0, 187500.0, 187500.0, 187500.0, 187500.0, 187500.0, 187500.0, 0.03, -0.004, 1.012, 192.0, 0.0, 0.0, 0.0, 0.0, 0.0, 0.0, 0.0, 0.0, 0.0, 1.6946009439942105E9, 0.0, 2023-09-13 12:29:03.994
98.0, -12.226404217052963, 187500.0, 187500.0, 187500.0, 187500.0, 187500.0, 187500.0, 187500.0, 0.03, -0.004, 1.012, 192.0, 0.0, 0.0, 0.0, 0.0, 0.0, 0.0, 0.0, 0.0, 0.0, 1.6946009439942577E9, 0.0, 2023-09-13 12:29:03.994
99.0, -12.047590261410507, 187500.0, 187500.0, 187500.0, 187500.0, 187500.0, 187500.0, 187500.0, 0.026000000000000002, -0.004, 1.008, 192.0, 0.0, 208.0, 255.0, 224.0, 31.0, 128.0, 0.0, 0.0, 0.0, 1.6946009439943037E9, 0.0, 2023-09-13 12:29:03.994
100.0, -17.680229864147886, 187500.0, 187500.0, 187500.0, 187500.0, 187500.0, 187500.0, 187500.0, 0.026000000000000002, -0.004, 1.008, 192.0, 0.0, 0.0, 0.0, 0.0, 0.0, 0.0, 0.0, 0.0, 0.0, 1.6946009439943545E9, 0.0, 2023-09-13 12:29:03.994
101.0, -38.109724296298545, 187500.0, 187500.0, 187500.0, 187500.0, 187500.0, 187500.0, 187500.0, 0.026000000000000002, -0.004, 1.008, 192.0, 0.0, 0.0, 0.0, 0.0, 0.0, 0.0, 0.0, 0.0, 0.0, 1.6946009439944012E9, 0.0, 2023-09-13 12:29:03.994
102.0, -42.669480165181184, 187500.0, 187500.0, 187500.0, 187500.0, 187500.0, 187500.0, 187500.0, 0.026000000000000002, -0.004, 1.008, 192.0, 0.0, 0.0, 0.0, 0.0, 0.0, 0.0, 0.0, 0.0, 0.0, 1.694600943994449E9, 0.0, 2023-09-13 12:29:03.994
103.0, -42.7141836540918, 187500.0, 187500.0, 187500.0, 187500.0, 187500.0, 187500.0, 187500.0, 0.026000000000000002, -0.004, 1.008, 192.0, 0.0, 0.0, 0.0, 0.0, 0.0, 0.0, 0.0, 0.0, 0.0, 1.6946009439944952E9, 0.0, 2023-09-13 12:29:03.994
104.0, -37.461523707094635, 187500.0, 187500.0, 187500.0, 187500.0, 187500.0, 187500.0, 187500.0, 0.026000000000000002, -0.004, 1.008, 192.0, 0.0, 0.0, 0.0, 0.0, 0.0, 0.0, 0.0, 0.0, 0.0, 1.6946009439945416E9, 0.0, 2023-09-13 12:29:03.994
105.0, -17.36730544177359, 187500.0, 187500.0, 187500.0, 187500.0, 187500.0, 187500.0, 187500.0, 0.026000000000000002, -0.004, 1.008, 192.0, 0.0, 0.0, 0.0, 0.0, 0.0, 0.0, 0.0, 0.0, 0.0, 1.694600944469844E9, 0.0, 2023-09-13 12:29:04.469
106.0, -12.628735617248491, 187500.0, 187500.0, 187500.0, 187500.0, 187500.0, 187500.0, 187500.0, 0.026000000000000002, -0.004, 1.008, 192.0, 0.0, 0.0, 0.0, 0.0, 0.0, 0.0, 0.0, 0.0, 0.0, 1.6946009444700494E9, 0.0, 2023-09-13 12:29:04.470
107.0, -12.338162939329498, 187500.0, 187500.0, 187500.0, 187500.0, 187500.0, 187500.0, 187500.0, 0.026000000000000002, -0.004, 1.008, 192.0, 0.0, 0.0, 0.0, 0.0, 0.0, 0.0, 0.0, 0.0, 0.0, 1.6946009444700992E9, 0.0, 2023-09-13 12:29:04.470
108.0, -17.81434033087973, 187500.0, 187500.0, 187500.0, 187500.0, 187500.0, 187500.0, 187500.0, 0.026000000000000002, -0.004, 1.008, 192.0, 0.0, 0.0, 0.0, 0.0, 0.0, 0.0, 0.0, 0.0, 0.0, 1.6946009444701507E9, 0.0, 2023-09-13 12:29:04.470
109.0, -38.26618650748569, 187500.0, 187500.0, 187500.0, 187500.0, 187500.0, 187500.0, 187500.0, 0.03, -0.006, 1.01, 192.0, 0.0, 240.0, 255.0, 208.0, 31.0, 144.0, 0.0, 0.0, 0.0, 1.6946009444701953E9, 0.0, 2023-09-13 12:29:04.470
110.0, -42.96005284310017, 187500.0, 187500.0, 187500.0, 187500.0, 187500.0, 187500.0, 187500.0, 0.03, -0.006, 1.01, 192.0, 0.0, 0.0, 0.0, 0.0, 0.0, 0.0, 0.0, 0.0, 0.0, 1.6946009444702482E9, 0.0, 2023-09-13 12:29:04.470
111.0, -42.96005284310017, 187500.0, 187500.0, 187500.0, 187500.0, 187500.0, 187500.0, 187500.0, 0.03, -0.006, 1.01, 192.0, 0.0, 0.0, 0.0, 0.0, 0.0, 0.0, 0.0, 0.0, 0.0, 1.6946009444703047E9, 0.0, 2023-09-13 12:29:04.470
112.0, -37.68504115164771, 187500.0, 187500.0, 187500.0, 187500.0, 187500.0, 187500.0, 187500.0, 0.03, -0.006, 1.01, 192.0, 0.0, 0.0, 0.0, 0.0, 0.0, 0.0, 0.0, 0.0, 0.0, 1.6946009444703865E9, 0.0, 2023-09-13 12:29:04.470
113.0, -16.920270552667446, 187500.0, 187500.0, 187500.0, 187500.0, 187500.0, 187500.0, 187500.0, 0.03, -0.006, 1.01, 192.0, 0.0, 0.0, 0.0, 0.0, 0.0, 0.0, 0.0, 0.0, 0.0, 1.6946009444706151E9, 0.0, 2023-09-13 12:29:04.470
114.0, -12.427569917150727, 187500.0, 187500.0, 187500.0, 187500.0, 187500.0, 187500.0, 187500.0, 0.03, -0.006, 1.01, 192.0, 0.0, 0.0, 0.0, 0.0, 0.0, 0.0, 0.0, 0.0, 0.0, 1.694600944470676E9, 0.0, 2023-09-13 12:29:04.470
115.0, -12.494625150516647, 187500.0, 187500.0, 187500.0, 187500.0, 187500.0, 187500.0, 187500.0, 0.03, -0.006, 1.01, 192.0, 0.0, 0.0, 0.0, 0.0, 0.0, 0.0, 0.0, 0.0, 0.0, 1.6946009444707282E9, 0.0, 2023-09-13 12:29:04.470
116.0, -18.462540920083633, 187500.0, 187500.0, 187500.0, 187500.0, 187500.0, 187500.0, 187500.0, 0.03, -0.006, 1.01, 192.0, 0.0, 0.0, 0.0, 0.0, 0.0, 0.0, 0.0, 0.0, 0.0, 1.6946009444707751E9, 0.0, 2023-09-13 12:29:04.470
117.0, -38.42264871867284, 187500.0, 187500.0, 187500.0, 187500.0, 187500.0, 187500.0, 187500.0, 0.03, -0.006, 1.01, 192.0, 0.0, 0.0, 0.0, 0.0, 0.0, 0.0, 0.0, 0.0, 0.0, 1.6946009444708197E9, 0.0, 2023-09-13 12:29:04.470
118.0, -43.02710807646609, 187500.0, 187500.0, 187500.0, 187500.0, 187500.0, 187500.0, 187500.0, 0.03, -0.006, 1.01, 192.0, 0.0, 0.0, 0.0, 0.0, 0.0, 0.0, 0.0, 0.0, 0.0, 1.6946009444708652E9, 0.0, 2023-09-13 12:29:04.470
119.0, -43.116515054287326, 187500.0, 187500.0, 187500.0, 187500.0, 187500.0, 187500.0, 187500.0, 0.034, -0.006, 1.01, 192.0, 1.0, 16.0, 255.0, 208.0, 31.0, 144.0, 0.0, 0.0, 0.0, 1.6946009444709172E9, 0.0, 2023-09-13 12:29:04.470
120.0, -37.59563417382648, 187500.0, 187500.0, 187500.0, 187500.0, 187500.0, 187500.0, 187500.0, 0.034, -0.006, 1.01, 192.0, 0.0, 0.0, 0.0, 0.0, 0.0, 0.0, 0.0, 0.0, 0.0, 1.6946009444709697E9, 0.0, 2023-09-13 12:29:04.470
121.0, -17.099084508309904, 187500.0, 187500.0, 187500.0, 187500.0, 187500.0, 187500.0, 187500.0, 0.034, -0.006, 1.01, 192.0, 0.0, 0.0, 0.0, 0.0, 0.0, 0.0, 0.0, 0.0, 0.0, 1.6946009444710157E9, 0.0, 2023-09-13 12:29:04.471
122.0, -12.204052472597656, 187500.0, 187500.0, 187500.0, 187500.0, 187500.0, 187500.0, 187500.0, 0.034, -0.006, 1.01, 192.0, 0.0, 0.0, 0.0, 0.0, 0.0, 0.0, 0.0, 0.0, 0.0, 1.6946009444710584E9, 0.0, 2023-09-13 12:29:04.471
123.0, -12.293459450418885, 187500.0, 187500.0, 187500.0, 187500.0, 187500.0, 187500.0, 187500.0, 0.034, -0.006, 1.01, 192.0, 0.0, 0.0, 0.0, 0.0, 0.0, 0.0, 0.0, 0.0, 0.0, 1.6946009444711044E9, 0.0, 2023-09-13 12:29:04.471
124.0, -17.65787811969258, 187500.0, 187500.0, 187500.0, 187500.0, 187500.0, 187500.0, 187500.0, 0.034, -0.006, 1.01, 192.0, 0.0, 0.0, 0.0, 0.0, 0.0, 0.0, 0.0, 0.0, 0.0, 1.694600944471146E9, 0.0, 2023-09-13 12:29:04.471
125.0, -38.26618650748569, 187500.0, 187500.0, 187500.0, 187500.0, 187500.0, 187500.0, 187500.0, 0.034, -0.006, 1.01, 192.0, 0.0, 0.0, 0.0, 0.0, 0.0, 0.0, 0.0, 0.0, 0.0, 1.69460094447119E9, 0.0, 2023-09-13 12:29:04.471
126.0, -43.049459820921406, 187500.0, 187500.0, 187500.0, 187500.0, 187500.0, 187500.0, 187500.0, 0.034, -0.006, 1.01, 192.0, 0.0, 0.0, 0.0, 0.0, 0.0, 0.0, 0.0, 0.0, 0.0, 1.694600944471235E9, 0.0, 2023-09-13 12:29:04.471
127.0, -42.82594237636833, 187500.0, 187500.0, 187500.0, 187500.0, 187500.0, 187500.0, 187500.0, 0.034, -0.006, 1.01, 192.0, 0.0, 0.0, 0.0, 0.0, 0.0, 0.0, 0.0, 0.0, 0.0, 1.6946009444712808E9, 0.0, 2023-09-13 12:29:04.471
128.0, -37.43917196263933, 187500.0, 187500.0, 187500.0, 187500.0, 187500.0, 187500.0, 187500.0, 0.034, -0.006, 1.01, 192.0, 0.0, 0.0, 0.0, 0.0, 0.0, 0.0, 0.0, 0.0, 0.0, 1.6946009444714396E9, 0.0, 2023-09-13 12:29:04.471
129.0, -17.099084508309904, 187500.0, 187500.0, 187500.0, 187500.0, 187500.0, 187500.0, 187500.0, 0.032, -0.01, 1.008, 192.0, 1.0, 0.0, 255.0, 176.0, 31.0, 128.0, 0.0, 0.0, 0.0, 1.6946009444715047E9, 0.0, 2023-09-13 12:29:04.471
130.0, -12.762846083980333, 187500.0, 187500.0, 187500.0, 187500.0, 187500.0, 187500.0, 187500.0, 0.032, -0.01, 1.008, 192.0, 0.0, 0.0, 0.0, 0.0, 0.0, 0.0, 0.0, 0.0, 0.0, 1.6946009444716504E9, 0.0, 2023-09-13 12:29:04.471
131.0, -12.718142595069718, 187500.0, 187500.0, 187500.0, 187500.0, 187500.0, 187500.0, 187500.0, 0.032, -0.01, 1.008, 192.0, 0.0, 0.0, 0.0, 0.0, 0.0, 0.0, 0.0, 0.0, 0.0, 1.6946009444717224E9, 0.0, 2023-09-13 12:29:04.471
132.0, -18.149616497709335, 187500.0, 187500.0, 187500.0, 187500.0, 187500.0, 187500.0, 187500.0, 0.032, -0.01, 1.008, 192.0, 0.0, 0.0, 0.0, 0.0, 0.0, 0.0, 0.0, 0.0, 0.0, 1.6946009444717758E9, 0.0, 2023-09-13 12:29:04.471
133.0, -38.04266906293262, 187500.0, 187500.0, 187500.0, 187500.0, 187500.0, 187500.0, 187500.0, 0.032, -0.01, 1.008, 192.0, 0.0, 0.0, 0.0, 0.0, 0.0, 0.0, 0.0, 0.0, 0.0, 1.694600944471828E9, 0.0, 2023-09-13 12:29:04.471
134.0, -42.44596272062811, 187500.0, 187500.0, 187500.0, 187500.0, 187500.0, 187500.0, 187500.0, 0.032, -0.01, 1.008, 192.0, 0.0, 0.0, 0.0, 0.0, 0.0, 0.0, 0.0, 0.0, 0.0, 1.6946009444718888E9, 0.0, 2023-09-13 12:29:04.471
135.0, -42.75888714300241, 187500.0, 187500.0, 187500.0, 187500.0, 187500.0, 187500.0, 187500.0, 0.032, -0.01, 1.008, 192.0, 0.0, 0.0, 0.0, 0.0, 0.0, 0.0, 0.0, 0.0, 0.0, 1.6946009444719498E9, 0.0, 2023-09-13 12:29:04.471
136.0, -37.72974464055832, 187500.0, 187500.0, 187500.0, 187500.0, 187500.0, 187500.0, 187500.0, 0.032, -0.01, 1.008, 192.0, 0.0, 0.0, 0.0, 0.0, 0.0, 0.0, 0.0, 0.0, 0.0, 1.6946009444720044E9, 0.0, 2023-09-13 12:29:04.472
137.0, -17.34495369731828, 187500.0, 187500.0, 187500.0, 187500.0, 187500.0, 187500.0, 187500.0, 0.032, -0.01, 1.008, 192.0, 0.0, 0.0, 0.0, 0.0, 0.0, 0.0, 0.0, 0.0, 0.0, 1.694600944472056E9, 0.0, 2023-09-13 12:29:04.472
138.0, -12.315811194874192, 187500.0, 187500.0, 187500.0, 187500.0, 187500.0, 187500.0, 187500.0, 0.032, -0.01, 1.008, 192.0, 0.0, 0.0, 0.0, 0.0, 0.0, 0.0, 0.0, 0.0, 0.0, 1.6946009444721203E9, 0.0, 2023-09-13 12:29:04.472
139.0, -12.651087361703798, 187500.0, 187500.0, 187500.0, 187500.0, 187500.0, 187500.0, 187500.0, 0.034, -0.01, 1.008, 192.0, 1.0, 16.0, 255.0, 176.0, 31.0, 128.0, 0.0, 0.0, 0.0, 1.6946009444721787E9, 0.0, 2023-09-13 12:29:04.472
140.0, -18.0378577754328, 187500.0, 187500.0, 187500.0, 187500.0, 187500.0, 187500.0, 187500.0, 0.034, -0.01, 1.008, 192.0, 0.0, 0.0, 0.0, 0.0, 0.0, 0.0, 0.0, 0.0, 0.0, 1.6946009444722435E9, 0.0, 2023-09-13 12:29:04.472
141.0, -38.243834763030385, 187500.0, 187500.0, 187500.0, 187500.0, 187500.0, 187500.0, 187500.0, 0.034, -0.01, 1.008, 192.0, 0.0, 0.0, 0.0, 0.0, 0.0, 0.0, 0.0, 0.0, 0.0, 1.694600944472299E9, 0.0, 2023-09-13 12:29:04.472
142.0, -42.64712842072588, 187500.0, 187500.0, 187500.0, 187500.0, 187500.0, 187500.0, 187500.0, 0.034, -0.01, 1.008, 192.0, 0.0, 0.0, 0.0, 0.0, 0.0, 0.0, 0.0, 0.0, 0.0, 1.6946009444723592E9, 0.0, 2023-09-13 12:29:04.472
143.0, -42.401259231717496, 187500.0, 187500.0, 187500.0, 187500.0, 187500.0, 187500.0, 187500.0, 0.034, -0.01, 1.008, 192.0, 0.0, 0.0, 0.0, 0.0, 0.0, 0.0, 0.0, 0.0, 0.0, 1.6946009444727364E9, 0.0, 2023-09-13 12:29:04.472
144.0, -37.573282429371176, 187500.0, 187500.0, 187500.0, 187500.0, 187500.0, 187500.0, 187500.0, 0.034, -0.01, 1.008, 192.0, 0.0, 0.0, 0.0, 0.0, 0.0, 0.0, 0.0, 0.0, 0.0, 1.694600944472847E9, 0.0, 2023-09-13 12:29:04.472
145.0, -17.523767652960736, 187500.0, 187500.0, 187500.0, 187500.0, 187500.0, 187500.0, 187500.0, 0.034, -0.01, 1.008, 192.0, 0.0, 0.0, 0.0, 0.0, 0.0, 0.0, 0.0, 0.0, 0.0, 1.6946009444729104E9, 0.0, 2023-09-13 12:29:04.472
146.0, -12.762846083980333, 187500.0, 187500.0, 187500.0, 187500.0, 187500.0, 187500.0, 187500.0, 0.034, -0.01, 1.008, 192.0, 0.0, 0.0, 0.0, 0.0, 0.0, 0.0, 0.0, 0.0, 0.0, 1.6946009444729702E9, 0.0, 2023-09-13 12:29:04.472
147.0, -12.449921661606034, 187500.0, 187500.0, 187500.0, 187500.0, 187500.0, 187500.0, 187500.0, 0.034, -0.01, 1.008, 192.0, 0.0, 0.0, 0.0, 0.0, 0.0, 0.0, 0.0, 0.0, 0.0, 1.6946009444730303E9, 0.0, 2023-09-13 12:29:04.473
148.0, -17.635526375237273, 187500.0, 187500.0, 187500.0, 187500.0, 187500.0, 187500.0, 187500.0, 0.034, -0.01, 1.008, 192.0, 0.0, 0.0, 0.0, 0.0, 0.0, 0.0, 0.0, 0.0, 0.0, 1.6946009444730997E9, 0.0, 2023-09-13 12:29:04.473
149.0, -37.9756138295667, 187500.0, 187500.0, 187500.0, 187500.0, 187500.0, 187500.0, 187500.0, 0.034, -0.004, 1.004, 192.0, 1.0, 16.0, 255.0, 224.0, 31.0, 96.0, 0.0, 0.0, 0.0, 1.6946009444731631E9, 0.0, 2023-09-13 12:29:04.473
150.0, -43.02710807646609, 187500.0, 187500.0, 187500.0, 187500.0, 187500.0, 187500.0, 187500.0, 0.034, -0.004, 1.004, 192.0, 0.0, 0.0, 0.0, 0.0, 0.0, 0.0, 0.0, 0.0, 0.0, 1.6946009444732368E9, 0.0, 2023-09-13 12:29:04.473
151.0, -42.937701098644865, 187500.0, 187500.0, 187500.0, 187500.0, 187500.0, 187500.0, 187500.0, 0.034, -0.004, 1.004, 192.0, 0.0, 0.0, 0.0, 0.0, 0.0, 0.0, 0.0, 0.0, 0.0, 1.6946009444733005E9, 0.0, 2023-09-13 12:29:04.473
152.0, -37.48387545154994, 187500.0, 187500.0, 187500.0, 187500.0, 187500.0, 187500.0, 187500.0, 0.034, -0.004, 1.004, 192.0, 0.0, 0.0, 0.0, 0.0, 0.0, 0.0, 0.0, 0.0, 0.0, 1.6946009444733675E9, 0.0, 2023-09-13 12:29:04.473
153.0, -17.523767652960736, 187500.0, 187500.0, 187500.0, 187500.0, 187500.0, 187500.0, 187500.0, 0.034, -0.004, 1.004, 192.0, 0.0, 0.0, 0.0, 0.0, 0.0, 0.0, 0.0, 0.0, 0.0, 1.6946009444734328E9, 0.0, 2023-09-13 12:29:04.473
154.0, -12.94166003962279, 187500.0, 187500.0, 187500.0, 187500.0, 187500.0, 187500.0, 187500.0, 0.034, -0.004, 1.004, 192.0, 0.0, 0.0, 0.0, 0.0, 0.0, 0.0, 0.0, 0.0, 0.0, 1.694600944473508E9, 0.0, 2023-09-13 12:29:04.473
155.0, -12.695790850614411, 187500.0, 187500.0, 187500.0, 187500.0, 187500.0, 187500.0, 187500.0, 0.034, -0.004, 1.004, 192.0, 0.0, 0.0, 0.0, 0.0, 0.0, 0.0, 0.0, 0.0, 0.0, 1.6946009444735696E9, 0.0, 2023-09-13 12:29:04.473
156.0, -17.903747308700957, 187500.0, 187500.0, 187500.0, 187500.0, 187500.0, 187500.0, 187500.0, 0.034, -0.004, 1.004, 192.0, 0.0, 0.0, 0.0, 0.0, 0.0, 0.0, 0.0, 0.0, 0.0, 1.6946009444736476E9, 0.0, 2023-09-13 12:29:04.473
157.0, -38.08737255184324, 187500.0, 187500.0, 187500.0, 187500.0, 187500.0, 187500.0, 187500.0, 0.034, -0.004, 1.004, 192.0, 0.0, 0.0, 0.0, 0.0, 0.0, 0.0, 0.0, 0.0, 0.0, 1.6946009444737337E9, 0.0, 2023-09-13 12:29:04.473
158.0, -42.96005284310017, 187500.0, 187500.0, 187500.0, 187500.0, 187500.0, 187500.0, 187500.0, 0.034, -0.004, 1.004, 192.0, 0.0, 0.0, 0.0, 0.0, 0.0, 0.0, 0.0, 0.0, 0.0, 1.69460094447384E9, 0.0, 2023-09-13 12:29:04.473
159.0, -42.736535398547105, 187500.0, 187500.0, 187500.0, 187500.0, 187500.0, 187500.0, 187500.0, 0.028, -0.004, 1.0, 192.0, 0.0, 224.0, 255.0, 224.0, 31.0, 64.0, 0.0, 0.0, 0.0, 1.6946009444740248E9, 0.0, 2023-09-13 12:29:04.474
160.0, -37.6626894071924, 187500.0, 187500.0, 187500.0, 187500.0, 187500.0, 187500.0, 187500.0, 0.028, -0.004, 1.0, 192.0, 0.0, 0.0, 0.0, 0.0, 0.0, 0.0, 0.0, 0.0, 0.0, 1.6946009444740863E9, 0.0, 2023-09-13 12:29:04.474
161.0, -17.300250208407668, 187500.0, 187500.0, 187500.0, 187500.0, 187500.0, 187500.0, 187500.0, 0.028, -0.004, 1.0, 192.0, 0.0, 0.0, 0.0, 0.0, 0.0, 0.0, 0.0, 0.0, 0.0, 1.6946009444741404E9, 0.0, 2023-09-13 12:29:04.474
162.0, -12.338162939329498, 187500.0, 187500.0, 187500.0, 187500.0, 187500.0, 187500.0, 187500.0, 0.028, -0.004, 1.0, 192.0, 0.0, 0.0, 0.0, 0.0, 0.0, 0.0, 0.0, 0.0, 0.0, 1.6946009444741929E9, 0.0, 2023-09-13 12:29:04.474
163.0, -12.069942005865814, 187500.0, 187500.0, 187500.0, 187500.0, 187500.0, 187500.0, 187500.0, 0.028, -0.004, 1.0, 192.0, 0.0, 0.0, 0.0, 0.0, 0.0, 0.0, 0.0, 0.0, 0.0, 1.694600944474239E9, 0.0, 2023-09-13 12:29:04.474
164.0, -17.747285097513807, 187500.0, 187500.0, 187500.0, 187500.0, 187500.0, 187500.0, 187500.0, 0.028, -0.004, 1.0, 192.0, 0.0, 0.0, 0.0, 0.0, 0.0, 0.0, 0.0, 0.0, 0.0, 1.694600944474284E9, 0.0, 2023-09-13 12:29:04.474
165.0, -38.13207604075385, 187500.0, 187500.0, 187500.0, 187500.0, 187500.0, 187500.0, 187500.0, 0.028, -0.004, 1.0, 192.0, 0.0, 0.0, 0.0, 0.0, 0.0, 0.0, 0.0, 0.0, 0.0, 1.6946009444743211E9, 0.0, 2023-09-13 12:29:04.474
166.0, -42.602424931815264, 187500.0, 187500.0, 187500.0, 187500.0, 187500.0, 187500.0, 187500.0, 0.028, -0.004, 1.0, 192.0, 0.0, 0.0, 0.0, 0.0, 0.0, 0.0, 0.0, 0.0, 0.0, 1.6946009444743586E9, 0.0, 2023-09-13 12:29:04.474
167.0, -42.58007318735996, 187500.0, 187500.0, 187500.0, 187500.0, 187500.0, 187500.0, 187500.0, 0.028, -0.004, 1.0, 192.0, 0.0, 0.0, 0.0, 0.0, 0.0, 0.0, 0.0, 0.0, 0.0, 1.6946009444743974E9, 0.0, 2023-09-13 12:29:04.474
168.0, -37.43917196263933, 187500.0, 187500.0, 187500.0, 187500.0, 187500.0, 187500.0, 187500.0, 0.03, -0.006, 1.004, 192.0, 0.0, 240.0, 255.0, 208.0, 31.0, 96.0, 0.0, 0.0, 0.0, 1.6946009444744377E9, 0.0, 2023-09-13 12:29:04.474
169.0, -17.635526375237273, 187500.0, 187500.0, 187500.0, 187500.0, 187500.0, 187500.0, 187500.0, 0.03, -0.006, 1.004, 192.0, 0.0, 0.0, 0.0, 0.0, 0.0, 0.0, 0.0, 0.0, 0.0, 1.6946009444744833E9, 0.0, 2023-09-13 12:29:04.474
170.0, -12.762846083980333, 187500.0, 187500.0, 187500.0, 187500.0, 187500.0, 187500.0, 187500.0, 0.03, -0.006, 1.004, 192.0, 0.0, 0.0, 0.0, 0.0, 0.0, 0.0, 0.0, 0.0, 0.0, 1.6946009444745228E9, 0.0, 2023-09-13 12:29:04.474
171.0, -12.695790850614411, 187500.0, 187500.0, 187500.0, 187500.0, 187500.0, 187500.0, 187500.0, 0.03, -0.006, 1.004, 192.0, 0.0, 0.0, 0.0, 0.0, 0.0, 0.0, 0.0, 0.0, 0.0, 1.6946009444745624E9, 0.0, 2023-09-13 12:29:04.474
172.0, -17.702581608603193, 187500.0, 187500.0, 187500.0, 187500.0, 187500.0, 187500.0, 187500.0, 0.03, -0.006, 1.004, 192.0, 0.0, 0.0, 0.0, 0.0, 0.0, 0.0, 0.0, 0.0, 0.0, 1.6946009444746034E9, 0.0, 2023-09-13 12:29:04.474
173.0, -38.19913127411977, 187500.0, 187500.0, 187500.0, 187500.0, 187500.0, 187500.0, 187500.0, 0.03, -0.006, 1.004, 192.0, 0.0, 0.0, 0.0, 0.0, 0.0, 0.0, 0.0, 0.0, 0.0, 1.6946009444746556E9, 0.0, 2023-09-13 12:29:04.474
174.0, -42.602424931815264, 187500.0, 187500.0, 187500.0, 187500.0, 187500.0, 187500.0, 187500.0, 0.03, -0.006, 1.004, 192.0, 0.0, 0.0, 0.0, 0.0, 0.0, 0.0, 0.0, 0.0, 0.0, 1.6946009444748032E9, 0.0, 2023-09-13 12:29:04.474
175.0, -42.44596272062811, 187500.0, 187500.0, 187500.0, 187500.0, 187500.0, 187500.0, 187500.0, 0.03, -0.006, 1.004, 192.0, 0.0, 0.0, 0.0, 0.0, 0.0, 0.0, 0.0, 0.0, 0.0, 1.694600944474848E9, 0.0, 2023-09-13 12:29:04.474
176.0, -37.50622719600525, 187500.0, 187500.0, 187500.0, 187500.0, 187500.0, 187500.0, 187500.0, 0.03, -0.006, 1.004, 192.0, 0.0, 0.0, 0.0, 0.0, 0.0, 0.0, 0.0, 0.0, 0.0, 1.6946009444748876E9, 0.0, 2023-09-13 12:29:04.474
177.0, -17.25554671949705, 187500.0, 187500.0, 187500.0, 187500.0, 187500.0, 187500.0, 187500.0, 0.03, -0.006, 1.004, 192.0, 0.0, 0.0, 0.0, 0.0, 0.0, 0.0, 0.0, 0.0, 0.0, 1.6946009444749281E9, 0.0, 2023-09-13 12:29:04.474
178.0, -12.382866428240114, 187500.0, 187500.0, 187500.0, 187500.0, 187500.0, 187500.0, 187500.0, 0.032, -0.006, 1.006, 192.0, 1.0, 0.0, 255.0, 208.0, 31.0, 112.0, 0.0, 0.0, 0.0, 1.6946009444749699E9, 0.0, 2023-09-13 12:29:04.474
179.0, -12.539328639427263, 187500.0, 187500.0, 187500.0, 187500.0, 187500.0, 187500.0, 187500.0, 0.032, -0.006, 1.006, 192.0, 0.0, 0.0, 0.0, 0.0, 0.0, 0.0, 0.0, 0.0, 0.0, 1.6946009444750173E9, 0.0, 2023-09-13 12:29:04.475
180.0, -18.373133942262406, 187500.0, 187500.0, 187500.0, 187500.0, 187500.0, 187500.0, 187500.0, 0.032, -0.006, 1.006, 192.0, 0.0, 0.0, 0.0, 0.0, 0.0, 0.0, 0.0, 0.0, 0.0, 1.694600944475059E9, 0.0, 2023-09-13 12:29:04.475
181.0, -38.40029697421753, 187500.0, 187500.0, 187500.0, 187500.0, 187500.0, 187500.0, 187500.0, 0.032, -0.006, 1.006, 192.0, 0.0, 0.0, 0.0, 0.0, 0.0, 0.0, 0.0, 0.0, 0.0, 1.6946009444750967E9, 0.0, 2023-09-13 12:29:04.475
182.0, -42.89299760973425, 187500.0, 187500.0, 187500.0, 187500.0, 187500.0, 187500.0, 187500.0, 0.032, -0.006, 1.006, 192.0, 0.0, 0.0, 0.0, 0.0, 0.0, 0.0, 0.0, 0.0, 0.0, 1.6946009444751344E9, 0.0, 2023-09-13 12:29:04.475
183.0, -42.803590631913025, 187500.0, 187500.0, 187500.0, 187500.0, 187500.0, 187500.0, 187500.0, 0.032, -0.006, 1.006, 192.0, 0.0, 0.0, 0.0, 0.0, 0.0, 0.0, 0.0, 0.0, 0.0, 1.6946009444751732E9, 0.0, 2023-09-13 12:29:04.475
184.0, -37.528578940460555, 187500.0, 187500.0, 187500.0, 187500.0, 187500.0, 187500.0, 187500.0, 0.032, -0.006, 1.006, 192.0, 0.0, 0.0, 0.0, 0.0, 0.0, 0.0, 0.0, 0.0, 0.0, 1.6946009444752111E9, 0.0, 2023-09-13 12:29:04.475
185.0, -17.300250208407668, 187500.0, 187500.0, 187500.0, 187500.0, 187500.0, 187500.0, 187500.0, 0.032, -0.006, 1.006, 192.0, 0.0, 0.0, 0.0, 0.0, 0.0, 0.0, 0.0, 0.0, 0.0, 1.69460094447525E9, 0.0, 2023-09-13 12:29:04.475
186.0, -12.47227340606134, 187500.0, 187500.0, 187500.0, 187500.0, 187500.0, 187500.0, 187500.0, 0.032, -0.006, 1.006, 192.0, 0.0, 0.0, 0.0, 0.0, 0.0, 0.0, 0.0, 0.0, 0.0, 1.6946009444752903E9, 0.0, 2023-09-13 12:29:04.475
187.0, -12.673439106159105, 187500.0, 187500.0, 187500.0, 187500.0, 187500.0, 187500.0, 187500.0, 0.032, -0.006, 1.006, 192.0, 0.0, 0.0, 0.0, 0.0, 0.0, 0.0, 0.0, 0.0, 0.0, 1.6946009444753313E9, 0.0, 2023-09-13 12:29:04.475
188.0, -17.859043819790344, 187500.0, 187500.0, 187500.0, 187500.0, 187500.0, 187500.0, 187500.0, 0.03, -0.004, 1.008, 192.0, 0.0, 240.0, 255.0, 224.0, 31.0, 128.0, 0.0, 0.0, 0.0, 1.6946009444753733E9, 0.0, 2023-09-13 12:29:04.475
189.0, -38.22148301857508, 187500.0, 187500.0, 187500.0, 187500.0, 187500.0, 187500.0, 187500.0, 0.03, -0.004, 1.008, 192.0, 0.0, 0.0, 0.0, 0.0, 0.0, 0.0, 0.0, 0.0, 0.0, 1.6946009444754975E9, 0.0, 2023-09-13 12:29:04.475
190.0, -42.669480165181184, 187500.0, 187500.0, 187500.0, 187500.0, 187500.0, 187500.0, 187500.0, 0.03, -0.004, 1.008, 192.0, 0.0, 0.0, 0.0, 0.0, 0.0, 0.0, 0.0, 0.0, 0.0, 1.6946009444755456E9, 0.0, 2023-09-13 12:29:04.475
191.0, -42.84829412082364, 187500.0, 187500.0, 187500.0, 187500.0, 187500.0, 187500.0, 187500.0, 0.03, -0.004, 1.008, 192.0, 0.0, 0.0, 0.0, 0.0, 0.0, 0.0, 0.0, 0.0, 0.0, 1.6946009444755948E9, 0.0, 2023-09-13 12:29:04.475
192.0, -37.48387545154994, 187500.0, 187500.0, 187500.0, 187500.0, 187500.0, 187500.0, 187500.0, 0.03, -0.004, 1.008, 192.0, 0.0, 0.0, 0.0, 0.0, 0.0, 0.0, 0.0, 0.0, 0.0, 1.6946009444756413E9, 0.0, 2023-09-13 12:29:04.475
193.0, -17.233194975041744, 187500.0, 187500.0, 187500.0, 187500.0, 187500.0, 187500.0, 187500.0, 0.03, -0.004, 1.008, 192.0, 0.0, 0.0, 0.0, 0.0, 0.0, 0.0, 0.0, 0.0, 0.0, 1.6946009444756842E9, 0.0, 2023-09-13 12:29:04.475
194.0, -12.427569917150727, 187500.0, 187500.0, 187500.0, 187500.0, 187500.0, 187500.0, 187500.0, 0.03, -0.004, 1.008, 192.0, 0.0, 0.0, 0.0, 0.0, 0.0, 0.0, 0.0, 0.0, 0.0, 1.694600944475732E9, 0.0, 2023-09-13 12:29:04.475
195.0, -12.673439106159105, 187500.0, 187500.0, 187500.0, 187500.0, 187500.0, 187500.0, 187500.0, 0.03, -0.004, 1.008, 192.0, 0.0, 0.0, 0.0, 0.0, 0.0, 0.0, 0.0, 0.0, 0.0, 1.6946009444757838E9, 0.0, 2023-09-13 12:29:04.475
196.0, -18.328430453351793, 187500.0, 187500.0, 187500.0, 187500.0, 187500.0, 187500.0, 187500.0, 0.03, -0.004, 1.008, 192.0, 0.0, 0.0, 0.0, 0.0, 0.0, 0.0, 0.0, 0.0, 0.0, 1.6946009444758313E9, 0.0, 2023-09-13 12:29:04.475
197.0, -38.15442778520916, 187500.0, 187500.0, 187500.0, 187500.0, 187500.0, 187500.0, 187500.0, 0.03, -0.004, 1.008, 192.0, 0.0, 0.0, 0.0, 0.0, 0.0, 0.0, 0.0, 0.0, 0.0, 1.6946009444758763E9, 0.0, 2023-09-13 12:29:04.475
198.0, -42.78123888745772, 187500.0, 187500.0, 187500.0, 187500.0, 187500.0, 187500.0, 187500.0, 0.032, -0.006, 1.002, 192.0, 1.0, 0.0, 255.0, 208.0, 31.0, 80.0, 0.0, 0.0, 0.0, 1.6946009444759147E9, 0.0, 2023-09-13 12:29:04.475
199.0, -42.937701098644865, 187500.0, 187500.0, 187500.0, 187500.0, 187500.0, 187500.0, 187500.0, 0.032, -0.006, 1.002, 192.0, 0.0, 0.0, 0.0, 0.0, 0.0, 0.0, 0.0, 0.0, 0.0, 1.694600944475956E9, 0.0, 2023-09-13 12:29:04.475
200.0, -37.50622719600525, 187500.0, 187500.0, 187500.0, 187500.0, 187500.0, 187500.0, 187500.0, 0.032, -0.006, 1.002, 192.0, 0.0, 0.0, 0.0, 0.0, 0.0, 0.0, 0.0, 0.0, 0.0, 1.6946009444760005E9, 0.0, 2023-09-13 12:29:04.476
201.0, -17.34495369731828, 187500.0, 187500.0, 187500.0, 187500.0, 187500.0, 187500.0, 187500.0, 0.032, -0.006, 1.002, 192.0, 0.0, 0.0, 0.0, 0.0, 0.0, 0.0, 0.0, 0.0, 0.0, 1.6946009444760492E9, 0.0, 2023-09-13 12:29:04.476
202.0, -12.40521817269542, 187500.0, 187500.0, 187500.0, 187500.0, 187500.0, 187500.0, 187500.0, 0.032, -0.006, 1.002, 192.0, 0.0, 0.0, 0.0, 0.0, 0.0, 0.0, 0.0, 0.0, 0.0, 1.6946009444760902E9, 0.0, 2023-09-13 12:29:04.476
203.0, -12.24875596150827, 187500.0, 187500.0, 187500.0, 187500.0, 187500.0, 187500.0, 187500.0, 0.032, -0.006, 1.002, 192.0, 0.0, 0.0, 0.0, 0.0, 0.0, 0.0, 0.0, 0.0, 0.0, 1.69460094447613E9, 0.0, 2023-09-13 12:29:04.476
204.0, -17.993154286522184, 187500.0, 187500.0, 187500.0, 187500.0, 187500.0, 187500.0, 187500.0, 0.032, -0.006, 1.002, 192.0, 0.0, 0.0, 0.0, 0.0, 0.0, 0.0, 0.0, 0.0, 0.0, 1.6946009444762492E9, 0.0, 2023-09-13 12:29:04.476
205.0, -38.33324174085161, 187500.0, 187500.0, 187500.0, 187500.0, 187500.0, 187500.0, 187500.0, 0.032, -0.006, 1.002, 192.0, 0.0, 0.0, 0.0, 0.0, 0.0, 0.0, 0.0, 0.0, 0.0, 1.6946009444762995E9, 0.0, 2023-09-13 12:29:04.476
206.0, -42.669480165181184, 187500.0, 187500.0, 187500.0, 187500.0, 187500.0, 187500.0, 187500.0, 0.032, -0.006, 1.002, 192.0, 0.0, 0.0, 0.0, 0.0, 0.0, 0.0, 0.0, 0.0, 0.0, 1.6946009444763308E9, 0.0, 2023-09-13 12:29:04.476
207.0, -42.736535398547105, 187500.0, 187500.0, 187500.0, 187500.0, 187500.0, 187500.0, 187500.0, 0.032, -0.006, 1.002, 192.0, 0.0, 0.0, 0.0, 0.0, 0.0, 0.0, 0.0, 0.0, 0.0, 1.694600944476355E9, 0.0, 2023-09-13 12:29:04.476
208.0, -37.461523707094635, 187500.0, 187500.0, 187500.0, 187500.0, 187500.0, 187500.0, 187500.0, 0.036000000000000004, -0.008, 1.002, 192.0, 1.0, 32.0, 255.0, 192.0, 31.0, 80.0, 0.0, 0.0, 0.0, 1.694600944476384E9, 0.0, 2023-09-13 12:29:04.476
209.0, -17.456712419594815, 187500.0, 187500.0, 187500.0, 187500.0, 187500.0, 187500.0, 187500.0, 0.036000000000000004, -0.008, 1.002, 192.0, 0.0, 0.0, 0.0, 0.0, 0.0, 0.0, 0.0, 0.0, 0.0, 1.6946009444764104E9, 0.0, 2023-09-13 12:29:04.476
210.0, -12.449921661606034, 187500.0, 187500.0, 187500.0, 187500.0, 187500.0, 187500.0, 187500.0, 0.036000000000000004, -0.008, 1.002, 192.0, 0.0, 0.0, 0.0, 0.0, 0.0, 0.0, 0.0, 0.0, 0.0, 1.694600944476444E9, 0.0, 2023-09-13 12:29:04.476
211.0, -12.338162939329498, 187500.0, 187500.0, 187500.0, 187500.0, 187500.0, 187500.0, 187500.0, 0.036000000000000004, -0.008, 1.002, 192.0, 0.0, 0.0, 0.0, 0.0, 0.0, 0.0, 0.0, 0.0, 0.0, 1.6946009444764853E9, 0.0, 2023-09-13 12:29:04.476
212.0, -17.94845079761157, 187500.0, 187500.0, 187500.0, 187500.0, 187500.0, 187500.0, 187500.0, 0.036000000000000004, -0.008, 1.002, 192.0, 0.0, 0.0, 0.0, 0.0, 0.0, 0.0, 0.0, 0.0, 0.0, 1.6946009444765103E9, 0.0, 2023-09-13 12:29:04.476
213.0, -38.33324174085161, 187500.0, 187500.0, 187500.0, 187500.0, 187500.0, 187500.0, 187500.0, 0.036000000000000004, -0.008, 1.002, 192.0, 0.0, 0.0, 0.0, 0.0, 0.0, 0.0, 0.0, 0.0, 0.0, 1.6946009444765348E9, 0.0, 2023-09-13 12:29:04.476
214.0, -42.84829412082364, 187500.0, 187500.0, 187500.0, 187500.0, 187500.0, 187500.0, 187500.0, 0.036000000000000004, -0.008, 1.002, 192.0, 0.0, 0.0, 0.0, 0.0, 0.0, 0.0, 0.0, 0.0, 0.0, 1.6946009444765587E9, 0.0, 2023-09-13 12:29:04.476
215.0, -42.401259231717496, 187500.0, 187500.0, 187500.0, 187500.0, 187500.0, 187500.0, 187500.0, 0.036000000000000004, -0.008, 1.002, 192.0, 0.0, 0.0, 0.0, 0.0, 0.0, 0.0, 0.0, 0.0, 0.0, 1.694600944476583E9, 0.0, 2023-09-13 12:29:04.476
216.0, -37.72974464055832, 187500.0, 187500.0, 187500.0, 187500.0, 187500.0, 187500.0, 187500.0, 0.036000000000000004, -0.008, 1.002, 192.0, 0.0, 0.0, 0.0, 0.0, 0.0, 0.0, 0.0, 0.0, 0.0, 1.694600944476607E9, 0.0, 2023-09-13 12:29:04.476
217.0, -17.568471141871353, 187500.0, 187500.0, 187500.0, 187500.0, 187500.0, 187500.0, 187500.0, 0.036000000000000004, -0.008, 1.002, 192.0, 0.0, 0.0, 0.0, 0.0, 0.0, 0.0, 0.0, 0.0, 0.0, 1.694600944476631E9, 0.0, 2023-09-13 12:29:04.476
218.0, -12.718142595069718, 187500.0, 187500.0, 187500.0, 187500.0, 187500.0, 187500.0, 187500.0, 0.03, -0.012, 1.01, 192.0, 0.0, 240.0, 255.0, 160.0, 31.0, 144.0, 0.0, 0.0, 0.0, 1.6946009444766552E9, 0.0, 2023-09-13 12:29:04.476
219.0, -12.449921661606034, 187500.0, 187500.0, 187500.0, 187500.0, 187500.0, 187500.0, 187500.0, 0.03, -0.012, 1.01, 192.0, 0.0, 0.0, 0.0, 0.0, 0.0, 0.0, 0.0, 0.0, 0.0, 1.694600944476681E9, 0.0, 2023-09-13 12:29:04.476
220.0, -17.747285097513807, 187500.0, 187500.0, 187500.0, 187500.0, 187500.0, 187500.0, 187500.0, 0.03, -0.012, 1.01, 192.0, 0.0, 0.0, 0.0, 0.0, 0.0, 0.0, 0.0, 0.0, 0.0, 1.6946009444767509E9, 0.0, 2023-09-13 12:29:04.476
221.0, -37.930910340656084, 187500.0, 187500.0, 187500.0, 187500.0, 187500.0, 187500.0, 187500.0, 0.03, -0.012, 1.01, 192.0, 0.0, 0.0, 0.0, 0.0, 0.0, 0.0, 0.0, 0.0, 0.0, 1.694600944476776E9, 0.0, 2023-09-13 12:29:04.476
222.0, -42.55772144290465, 187500.0, 187500.0, 187500.0, 187500.0, 187500.0, 187500.0, 187500.0, 0.03, -0.012, 1.01, 192.0, 0.0, 0.0, 0.0, 0.0, 0.0, 0.0, 0.0, 0.0, 0.0, 1.6946009444768004E9, 0.0, 2023-09-13 12:29:04.476
223.0, -42.736535398547105, 187500.0, 187500.0, 187500.0, 187500.0, 187500.0, 187500.0, 187500.0, 0.03, -0.012, 1.01, 192.0, 0.0, 0.0, 0.0, 0.0, 0.0, 0.0, 0.0, 0.0, 0.0, 1.6946009444768245E9, 0.0, 2023-09-13 12:29:04.476
224.0, -37.43917196263933, 187500.0, 187500.0, 187500.0, 187500.0, 187500.0, 187500.0, 187500.0, 0.03, -0.012, 1.01, 192.0, 0.0, 0.0, 0.0, 0.0, 0.0, 0.0, 0.0, 0.0, 0.0, 1.6946009444768488E9, 0.0, 2023-09-13 12:29:04.476
225.0, -17.65787811969258, 187500.0, 187500.0, 187500.0, 187500.0, 187500.0, 187500.0, 187500.0, 0.03, -0.012, 1.01, 192.0, 0.0, 0.0, 0.0, 0.0, 0.0, 0.0, 0.0, 0.0, 0.0, 1.6946009449500153E9, 0.0, 2023-09-13 12:29:04.950
226.0, -12.449921661606034, 187500.0, 187500.0, 187500.0, 187500.0, 187500.0, 187500.0, 187500.0, 0.03, -0.012, 1.01, 192.0, 0.0, 0.0, 0.0, 0.0, 0.0, 0.0, 0.0, 0.0, 0.0, 1.6946009449501688E9, 0.0, 2023-09-13 12:29:04.950
227.0, -12.606383872793183, 187500.0, 187500.0, 187500.0, 187500.0, 187500.0, 187500.0, 187500.0, 0.03, -0.012, 1.01, 192.0, 0.0, 0.0, 0.0, 0.0, 0.0, 0.0, 0.0, 0.0, 0.0, 1.694600944950244E9, 0.0, 2023-09-13 12:29:04.950
228.0, -17.859043819790344, 187500.0, 187500.0, 187500.0, 187500.0, 187500.0, 187500.0, 187500.0, 0.028, -0.012, 1.008, 192.0, 0.0, 224.0, 255.0, 160.0, 31.0, 128.0, 0.0, 0.0, 0.0, 1.6946009449502969E9, 0.0, 2023-09-13 12:29:04.950
229.0, -37.90855859620078, 187500.0, 187500.0, 187500.0, 187500.0, 187500.0, 187500.0, 187500.0, 0.028, -0.012, 1.008, 192.0, 0.0, 0.0, 0.0, 0.0, 0.0, 0.0, 0.0, 0.0, 0.0, 1.6946009449503508E9, 0.0, 2023-09-13 12:29:04.950
230.0, -42.75888714300241, 187500.0, 187500.0, 187500.0, 187500.0, 187500.0, 187500.0, 187500.0, 0.028, -0.012, 1.008, 192.0, 0.0, 0.0, 0.0, 0.0, 0.0, 0.0, 0.0, 0.0, 0.0, 1.6946009449503884E9, 0.0, 2023-09-13 12:29:04.950
231.0, -43.004756332010786, 187500.0, 187500.0, 187500.0, 187500.0, 187500.0, 187500.0, 187500.0, 0.028, -0.012, 1.008, 192.0, 0.0, 0.0, 0.0, 0.0, 0.0, 0.0, 0.0, 0.0, 0.0, 1.6946009449504142E9, 0.0, 2023-09-13 12:29:04.950
232.0, -37.461523707094635, 187500.0, 187500.0, 187500.0, 187500.0, 187500.0, 187500.0, 187500.0, 0.028, -0.012, 1.008, 192.0, 0.0, 0.0, 0.0, 0.0, 0.0, 0.0, 0.0, 0.0, 0.0, 1.6946009449504387E9, 0.0, 2023-09-13 12:29:04.950
233.0, -17.36730544177359, 187500.0, 187500.0, 187500.0, 187500.0, 187500.0, 187500.0, 187500.0, 0.028, -0.012, 1.008, 192.0, 0.0, 0.0, 0.0, 0.0, 0.0, 0.0, 0.0, 0.0, 0.0, 1.694600944950464E9, 0.0, 2023-09-13 12:29:04.950
234.0, -12.539328639427263, 187500.0, 187500.0, 187500.0, 187500.0, 187500.0, 187500.0, 187500.0, 0.028, -0.012, 1.008, 192.0, 0.0, 0.0, 0.0, 0.0, 0.0, 0.0, 0.0, 0.0, 0.0, 1.6946009449504888E9, 0.0, 2023-09-13 12:29:04.950
235.0, -12.78519782843564, 187500.0, 187500.0, 187500.0, 187500.0, 187500.0, 187500.0, 187500.0, 0.028, -0.012, 1.008, 192.0, 0.0, 0.0, 0.0, 0.0, 0.0, 0.0, 0.0, 0.0, 0.0, 1.6946009449507396E9, 0.0, 2023-09-13 12:29:04.950
236.0, -18.19431998661995, 187500.0, 187500.0, 187500.0, 187500.0, 187500.0, 187500.0, 187500.0, 0.028, -0.012, 1.008, 192.0, 0.0, 0.0, 0.0, 0.0, 0.0, 0.0, 0.0, 0.0, 0.0, 1.6946009449507716E9, 0.0, 2023-09-13 12:29:04.950
237.0, -38.42264871867284, 187500.0, 187500.0, 187500.0, 187500.0, 187500.0, 187500.0, 187500.0, 0.028, -0.012, 1.008, 192.0, 0.0, 0.0, 0.0, 0.0, 0.0, 0.0, 0.0, 0.0, 0.0, 1.694600944950804E9, 0.0, 2023-09-13 12:29:04.950
238.0, -42.736535398547105, 187500.0, 187500.0, 187500.0, 187500.0, 187500.0, 187500.0, 187500.0, 0.03, -0.006, 1.002, 192.0, 0.0, 240.0, 255.0, 208.0, 31.0, 80.0, 0.0, 0.0, 0.0, 1.6946009449508548E9, 0.0, 2023-09-13 12:29:04.950
239.0, -42.58007318735996, 187500.0, 187500.0, 187500.0, 187500.0, 187500.0, 187500.0, 187500.0, 0.03, -0.006, 1.002, 192.0, 0.0, 0.0, 0.0, 0.0, 0.0, 0.0, 0.0, 0.0, 0.0, 1.6946009449509082E9, 0.0, 2023-09-13 12:29:04.950
240.0, -37.41682021818402, 187500.0, 187500.0, 187500.0, 187500.0, 187500.0, 187500.0, 187500.0, 0.03, -0.006, 1.002, 192.0, 0.0, 0.0, 0.0, 0.0, 0.0, 0.0, 0.0, 0.0, 0.0, 1.6946009449509704E9, 0.0, 2023-09-13 12:29:04.950
241.0, -17.635526375237273, 187500.0, 187500.0, 187500.0, 187500.0, 187500.0, 187500.0, 187500.0, 0.03, -0.006, 1.002, 192.0, 0.0, 0.0, 0.0, 0.0, 0.0, 0.0, 0.0, 0.0, 0.0, 1.6946009449510264E9, 0.0, 2023-09-13 12:29:04.951
242.0, -12.762846083980333, 187500.0, 187500.0, 187500.0, 187500.0, 187500.0, 187500.0, 187500.0, 0.03, -0.006, 1.002, 192.0, 0.0, 0.0, 0.0, 0.0, 0.0, 0.0, 0.0, 0.0, 0.0, 1.6946009449510715E9, 0.0, 2023-09-13 12:29:04.951
243.0, -12.516976894971956, 187500.0, 187500.0, 187500.0, 187500.0, 187500.0, 187500.0, 187500.0, 0.03, -0.006, 1.002, 192.0, 0.0, 0.0, 0.0, 0.0, 0.0, 0.0, 0.0, 0.0, 0.0, 1.6946009449511151E9, 0.0, 2023-09-13 12:29:04.951
244.0, -17.970802542066878, 187500.0, 187500.0, 187500.0, 187500.0, 187500.0, 187500.0, 187500.0, 0.03, -0.006, 1.002, 192.0, 0.0, 0.0, 0.0, 0.0, 0.0, 0.0, 0.0, 0.0, 0.0, 1.6946009449511583E9, 0.0, 2023-09-13 12:29:04.951
245.0, -38.512055696494066, 187500.0, 187500.0, 187500.0, 187500.0, 187500.0, 187500.0, 187500.0, 0.03, -0.006, 1.002, 192.0, 0.0, 0.0, 0.0, 0.0, 0.0, 0.0, 0.0, 0.0, 0.0, 1.6946009449512022E9, 0.0, 2023-09-13 12:29:04.951
246.0, -43.07181156537671, 187500.0, 187500.0, 187500.0, 187500.0, 187500.0, 187500.0, 187500.0, 0.03, -0.006, 1.002, 192.0, 0.0, 0.0, 0.0, 0.0, 0.0, 0.0, 0.0, 0.0, 0.0, 1.6946009449512467E9, 0.0, 2023-09-13 12:29:04.951
247.0, -42.82594237636833, 187500.0, 187500.0, 187500.0, 187500.0, 187500.0, 187500.0, 187500.0, 0.03, -0.006, 1.002, 192.0, 0.0, 0.0, 0.0, 0.0, 0.0, 0.0, 0.0, 0.0, 0.0, 1.694600944951304E9, 0.0, 2023-09-13 12:29:04.951
248.0, -37.48387545154994, 187500.0, 187500.0, 187500.0, 187500.0, 187500.0, 187500.0, 187500.0, 0.03, -0.006, 1.0, 192.0, 0.0, 240.0, 255.0, 208.0, 31.0, 64.0, 0.0, 0.0, 0.0, 1.6946009449513552E9, 0.0, 2023-09-13 12:29:04.951
249.0, -17.277898463952358, 187500.0, 187500.0, 187500.0, 187500.0, 187500.0, 187500.0, 187500.0, 0.03, -0.006, 1.0, 192.0, 0.0, 0.0, 0.0, 0.0, 0.0, 0.0, 0.0, 0.0, 0.0, 1.6946009449514093E9, 0.0, 2023-09-13 12:29:04.951
250.0, -12.427569917150727, 187500.0, 187500.0, 187500.0, 187500.0, 187500.0, 187500.0, 187500.0, 0.03, -0.006, 1.0, 192.0, 0.0, 0.0, 0.0, 0.0, 0.0, 0.0, 0.0, 0.0, 0.0, 1.6946009449517477E9, 0.0, 2023-09-13 12:29:04.951
251.0, -12.874604806256869, 187500.0, 187500.0, 187500.0, 187500.0, 187500.0, 187500.0, 187500.0, 0.03, -0.006, 1.0, 192.0, 0.0, 0.0, 0.0, 0.0, 0.0, 0.0, 0.0, 0.0, 0.0, 1.694600944951799E9, 0.0, 2023-09-13 12:29:04.951
252.0, -17.970802542066878, 187500.0, 187500.0, 187500.0, 187500.0, 187500.0, 187500.0, 187500.0, 0.03, -0.006, 1.0, 192.0, 0.0, 0.0, 0.0, 0.0, 0.0, 0.0, 0.0, 0.0, 0.0, 1.694600944951846E9, 0.0, 2023-09-13 12:29:04.951
253.0, -37.86385510729016, 187500.0, 187500.0, 187500.0, 187500.0, 187500.0, 187500.0, 187500.0, 0.03, -0.006, 1.0, 192.0, 0.0, 0.0, 0.0, 0.0, 0.0, 0.0, 0.0, 0.0, 0.0, 1.694600944951892E9, 0.0, 2023-09-13 12:29:04.951
254.0, -42.82594237636833, 187500.0, 187500.0, 187500.0, 187500.0, 187500.0, 187500.0, 187500.0, 0.03, -0.006, 1.0, 192.0, 0.0, 0.0, 0.0, 0.0, 0.0, 0.0, 0.0, 0.0, 0.0, 1.694600944951939E9, 0.0, 2023-09-13 12:29:04.951
255.0, -42.62477667627057, 187500.0, 187500.0, 187500.0, 187500.0, 187500.0, 187500.0, 187500.0, 0.03, -0.006, 1.0, 192.0, 0.0, 0.0, 0.0, 0.0, 0.0, 0.0, 0.0, 0.0, 0.0, 1.6946009449519832E9, 0.0, 2023-09-13 12:29:04.951
0.0, -37.394468473728715, 187500.0, 187500.0, 187500.0, 187500.0, 187500.0, 187500.0, 187500.0, 0.03, -0.006, 1.0, 192.0, 0.0, 0.0, 0.0, 0.0, 0.0, 0.0, 0.0, 0.0, 0.0, 1.6946009449520285E9, 0.0, 2023-09-13 12:29:04.952
1.0, -17.389657186228895, 187500.0, 187500.0, 187500.0, 187500.0, 187500.0, 187500.0, 187500.0, 0.03, -0.006, 1.0, 192.0, 0.0, 0.0, 0.0, 0.0, 0.0, 0.0, 0.0, 0.0, 0.0, 1.694600944952077E9, 0.0, 2023-09-13 12:29:04.952
2.0, -12.539328639427263, 187500.0, 187500.0, 187500.0, 187500.0, 187500.0, 187500.0, 187500.0, 0.034, -0.008, 1.006, 192.0, 1.0, 16.0, 255.0, 192.0, 31.0, 112.0, 0.0, 0.0, 0.0, 1.6946009449521267E9, 0.0, 2023-09-13 12:29:04.952
3.0, -12.24875596150827, 187500.0, 187500.0, 187500.0, 187500.0, 187500.0, 187500.0, 187500.0, 0.034, -0.008, 1.006, 192.0, 0.0, 0.0, 0.0, 0.0, 0.0, 0.0, 0.0, 0.0, 0.0, 1.69460094495218E9, 0.0, 2023-09-13 12:29:04.952
4.0, -17.791988586424424, 187500.0, 187500.0, 187500.0, 187500.0, 187500.0, 187500.0, 187500.0, 0.034, -0.008, 1.006, 192.0, 0.0, 0.0, 0.0, 0.0, 0.0, 0.0, 0.0, 0.0, 0.0, 1.6946009449522357E9, 0.0, 2023-09-13 12:29:04.952
5.0, -38.243834763030385, 187500.0, 187500.0, 187500.0, 187500.0, 187500.0, 187500.0, 187500.0, 0.034, -0.008, 1.006, 192.0, 0.0, 0.0, 0.0, 0.0, 0.0, 0.0, 0.0, 0.0, 0.0, 1.6946009449523015E9, 0.0, 2023-09-13 12:29:04.952
6.0, -42.98240458755548, 187500.0, 187500.0, 187500.0, 187500.0, 187500.0, 187500.0, 187500.0, 0.034, -0.008, 1.006, 192.0, 0.0, 0.0, 0.0, 0.0, 0.0, 0.0, 0.0, 0.0, 0.0, 1.6946009449523573E9, 0.0, 2023-09-13 12:29:04.952
7.0, -42.75888714300241, 187500.0, 187500.0, 187500.0, 187500.0, 187500.0, 187500.0, 187500.0, 0.034, -0.008, 1.006, 192.0, 0.0, 0.0, 0.0, 0.0, 0.0, 0.0, 0.0, 0.0, 0.0, 1.6946009449524088E9, 0.0, 2023-09-13 12:29:04.952
8.0, -37.59563417382648, 187500.0, 187500.0, 187500.0, 187500.0, 187500.0, 187500.0, 187500.0, 0.034, -0.008, 1.006, 192.0, 0.0, 0.0, 0.0, 0.0, 0.0, 0.0, 0.0, 0.0, 0.0, 1.6946009449524555E9, 0.0, 2023-09-13 12:29:04.952
9.0, -17.479064164050122, 187500.0, 187500.0, 187500.0, 187500.0, 187500.0, 187500.0, 187500.0, 0.034, -0.008, 1.006, 192.0, 0.0, 0.0, 0.0, 0.0, 0.0, 0.0, 0.0, 0.0, 0.0, 1.6946009449525023E9, 0.0, 2023-09-13 12:29:04.952
10.0, -13.098122250809938, 187500.0, 187500.0, 187500.0, 187500.0, 187500.0, 187500.0, 187500.0, 0.034, -0.008, 1.006, 192.0, 0.0, 0.0, 0.0, 0.0, 0.0, 0.0, 0.0, 0.0, 0.0, 1.6946009449529147E9, 0.0, 2023-09-13 12:29:04.952
11.0, -12.539328639427263, 187500.0, 187500.0, 187500.0, 187500.0, 187500.0, 187500.0, 187500.0, 0.034, -0.008, 1.006, 192.0, 0.0, 0.0, 0.0, 0.0, 0.0, 0.0, 0.0, 0.0, 0.0, 1.6946009449530413E9, 0.0, 2023-09-13 12:29:04.953
12.0, -17.81434033087973, 187500.0, 187500.0, 187500.0, 187500.0, 187500.0, 187500.0, 187500.0, 0.034, -0.008, 1.008, 192.0, 1.0, 16.0, 255.0, 192.0, 31.0, 128.0, 0.0, 0.0, 0.0, 1.6946009449531703E9, 0.0, 2023-09-13 12:29:04.953
13.0, -38.15442778520916, 187500.0, 187500.0, 187500.0, 187500.0, 187500.0, 187500.0, 187500.0, 0.034, -0.008, 1.008, 192.0, 0.0, 0.0, 0.0, 0.0, 0.0, 0.0, 0.0, 0.0, 0.0, 1.694600944953309E9, 0.0, 2023-09-13 12:29:04.953
14.0, -43.20592203210855, 187500.0, 187500.0, 187500.0, 187500.0, 187500.0, 187500.0, 187500.0, 0.034, -0.008, 1.008, 192.0, 0.0, 0.0, 0.0, 0.0, 0.0, 0.0, 0.0, 0.0, 0.0, 1.6946009449534264E9, 0.0, 2023-09-13 12:29:04.953
15.0, -43.38473598775101, 187500.0, 187500.0, 187500.0, 187500.0, 187500.0, 187500.0, 187500.0, 0.034, -0.008, 1.008, 192.0, 0.0, 0.0, 0.0, 0.0, 0.0, 0.0, 0.0, 0.0, 0.0, 1.6946009449535537E9, 0.0, 2023-09-13 12:29:04.953
16.0, -37.79679987392424, 187500.0, 187500.0, 187500.0, 187500.0, 187500.0, 187500.0, 187500.0, 0.034, -0.008, 1.008, 192.0, 0.0, 0.0, 0.0, 0.0, 0.0, 0.0, 0.0, 0.0, 0.0, 1.694600944953694E9, 0.0, 2023-09-13 12:29:04.953
17.0, -17.635526375237273, 187500.0, 187500.0, 187500.0, 187500.0, 187500.0, 187500.0, 187500.0, 0.034, -0.008, 1.008, 192.0, 0.0, 0.0, 0.0, 0.0, 0.0, 0.0, 0.0, 0.0, 0.0, 1.6946009449538455E9, 0.0, 2023-09-13 12:29:04.953
18.0, -12.584032128337876, 187500.0, 187500.0, 187500.0, 187500.0, 187500.0, 187500.0, 187500.0, 0.034, -0.008, 1.008, 192.0, 0.0, 0.0, 0.0, 0.0, 0.0, 0.0, 0.0, 0.0, 0.0, 1.6946009449539971E9, 0.0, 2023-09-13 12:29:04.953
19.0, -12.740494339525025, 187500.0, 187500.0, 187500.0, 187500.0, 187500.0, 187500.0, 187500.0, 0.034, -0.008, 1.008, 192.0, 0.0, 0.0, 0.0, 0.0, 0.0, 0.0, 0.0, 0.0, 0.0, 1.694600944954079E9, 0.0, 2023-09-13 12:29:04.954
20.0, -18.216671731075255, 187500.0, 187500.0, 187500.0, 187500.0, 187500.0, 187500.0, 187500.0, 0.034, -0.008, 1.008, 192.0, 0.0, 0.0, 0.0, 0.0, 0.0, 0.0, 0.0, 0.0, 0.0, 1.694600944954127E9, 0.0, 2023-09-13 12:29:04.954
21.0, -38.35559348530692, 187500.0, 187500.0, 187500.0, 187500.0, 187500.0, 187500.0, 187500.0, 0.034, -0.008, 1.008, 192.0, 0.0, 0.0, 0.0, 0.0, 0.0, 0.0, 0.0, 0.0, 0.0, 1.6946009449541705E9, 0.0, 2023-09-13 12:29:04.954
