%OpenBCI Raw EXG Data
%Number of channels = 8
%Sample Rate = 250 Hz
%Board = OpenBCI_GUI$BoardCytonSerial
Sample Index, EXG Channel 0, EXG Channel 1, EXG Channel 2, EXG Channel 3, EXG Channel 4, EXG Channel 5, EXG Channel 6, EXG Channel 7, Accel Channel 0, Accel Channel 1, Accel Channel 2, Other, Other, Other, Other, Other, Other, Other, Analog Channel 0, Analog Channel 1, Analog Channel 2, Timestamp, Other, Timestamp (Formatted)
1.0, -15.400351929706567, 187500.0, 187500.0, 187500.0, 187500.0, 187500.0, 187500.0, 187500.0, 0.0, 0.0, 0.0, 192.0, 0.0, 0.0, 0.0, 0.0, 0.0, 0.0, 0.0, 0.0, 0.0, 1.6945969231368833E9, 0.0, 2023-09-13 11:22:03.136
2.0, -11.175872227653532, 187500.0, 187500.0, 187500.0, 187500.0, 187500.0, 187500.0, 187500.0, 0.0, 0.0, 0.0, 192.0, 0.0, 0.0, 0.0, 0.0, 0.0, 0.0, 0.0, 0.0, 0.0, 1.6945969231369548E9, 0.0, 2023-09-13 11:22:03.136
3.0, -11.26527920547476, 187500.0, 187500.0, 187500.0, 187500.0, 187500.0, 187500.0, 187500.0, 0.0, 0.0, 0.0, 192.0, 0.0, 0.0, 0.0, 0.0, 0.0, 0.0, 0.0, 0.0, 0.0, 1.694596923136999E9, 0.0, 2023-09-13 11:22:03.136
0.0, 0.0, 0.0, 0.0, 0.0, 0.0, 0.0, 0.0, 0.0, 0.03, -0.018000000000000002, 1.008, 192.0, 0.0, 240.0, 255.0, 112.0, 31.0, 128.0, 0.0, 0.0, 0.0, 1.6945969232087047E9, 0.0, 2023-09-13 11:22:03.208
1.0, -15.869738563268015, 187500.0, 187500.0, 187500.0, 187500.0, 187500.0, 187500.0, 187500.0, 0.03, -0.018000000000000002, 1.008, 192.0, 0.0, 0.0, 0.0, 0.0, 0.0, 0.0, 0.0, 0.0, 0.0, 1.6945969232247488E9, 0.0, 2023-09-13 11:22:03.224
2.0, -11.533500138938445, 187500.0, 187500.0, 187500.0, 187500.0, 187500.0, 187500.0, 187500.0, 0.03, -0.018000000000000002, 1.008, 192.0, 0.0, 0.0, 0.0, 0.0, 0.0, 0.0, 0.0, 0.0, 0.0, 1.694596923703621E9, 0.0, 2023-09-13 11:22:03.703
3.0, -11.578203627849058, 187500.0, 187500.0, 187500.0, 187500.0, 187500.0, 187500.0, 187500.0, 0.03, -0.018000000000000002, 1.008, 192.0, 0.0, 0.0, 0.0, 0.0, 0.0, 0.0, 0.0, 0.0, 0.0, 1.6945969237037406E9, 0.0, 2023-09-13 11:22:03.703
4.0, -16.383828685740077, 187500.0, 187500.0, 187500.0, 187500.0, 187500.0, 187500.0, 187500.0, 0.03, -0.018000000000000002, 1.008, 192.0, 0.0, 0.0, 0.0, 0.0, 0.0, 0.0, 0.0, 0.0, 0.0, 1.6945969237038276E9, 0.0, 2023-09-13 11:22:03.703
5.0, -34.5110934389941, 187500.0, 187500.0, 187500.0, 187500.0, 187500.0, 187500.0, 187500.0, 0.03, -0.018000000000000002, 1.008, 192.0, 0.0, 0.0, 0.0, 0.0, 0.0, 0.0, 0.0, 0.0, 0.0, 1.6945969237038767E9, 0.0, 2023-09-13 11:22:03.703
6.0, -39.227311519063896, 187500.0, 187500.0, 187500.0, 187500.0, 187500.0, 187500.0, 187500.0, 0.03, -0.018000000000000002, 1.008, 192.0, 0.0, 0.0, 0.0, 0.0, 0.0, 0.0, 0.0, 0.0, 0.0, 1.6945969237039282E9, 0.0, 2023-09-13 11:22:03.703
7.0, -39.160256285697976, 187500.0, 187500.0, 187500.0, 187500.0, 187500.0, 187500.0, 187500.0, 0.03, -0.018000000000000002, 1.008, 192.0, 0.0, 0.0, 0.0, 0.0, 0.0, 0.0, 0.0, 0.0, 0.0, 1.6945969237039807E9, 0.0, 2023-09-13 11:22:03.703
8.0, -34.30992773889634, 187500.0, 187500.0, 187500.0, 187500.0, 187500.0, 187500.0, 187500.0, 0.026000000000000002, -0.018000000000000002, 1.008, 192.0, 0.0, 208.0, 255.0, 112.0, 31.0, 128.0, 0.0, 0.0, 0.0, 1.694596923704025E9, 0.0, 2023-09-13 11:22:03.704
9.0, -15.869738563268015, 187500.0, 187500.0, 187500.0, 187500.0, 187500.0, 187500.0, 187500.0, 0.026000000000000002, -0.018000000000000002, 1.008, 192.0, 0.0, 0.0, 0.0, 0.0, 0.0, 0.0, 0.0, 0.0, 0.0, 1.6945969237040825E9, 0.0, 2023-09-13 11:22:03.704
10.0, -11.377037927751294, 187500.0, 187500.0, 187500.0, 187500.0, 187500.0, 187500.0, 187500.0, 0.026000000000000002, -0.018000000000000002, 1.008, 192.0, 0.0, 0.0, 0.0, 0.0, 0.0, 0.0, 0.0, 0.0, 0.0, 1.6945969237041278E9, 0.0, 2023-09-13 11:22:03.704
11.0, -11.153520483198225, 187500.0, 187500.0, 187500.0, 187500.0, 187500.0, 187500.0, 187500.0, 0.026000000000000002, -0.018000000000000002, 1.008, 192.0, 0.0, 0.0, 0.0, 0.0, 0.0, 0.0, 0.0, 0.0, 0.0, 1.694596923704174E9, 0.0, 2023-09-13 11:22:03.704
12.0, -16.517939152471918, 187500.0, 187500.0, 187500.0, 187500.0, 187500.0, 187500.0, 187500.0, 0.026000000000000002, -0.018000000000000002, 1.008, 192.0, 0.0, 0.0, 0.0, 0.0, 0.0, 0.0, 0.0, 0.0, 0.0, 1.6945969237042196E9, 0.0, 2023-09-13 11:22:03.704
13.0, -35.36045972829577, 187500.0, 187500.0, 187500.0, 187500.0, 187500.0, 187500.0, 187500.0, 0.026000000000000002, -0.018000000000000002, 1.008, 192.0, 0.0, 0.0, 0.0, 0.0, 0.0, 0.0, 0.0, 0.0, 0.0, 1.69459692370427E9, 0.0, 2023-09-13 11:22:03.704
14.0, -39.2496632635192, 187500.0, 187500.0, 187500.0, 187500.0, 187500.0, 187500.0, 187500.0, 0.026000000000000002, -0.018000000000000002, 1.008, 192.0, 0.0, 0.0, 0.0, 0.0, 0.0, 0.0, 0.0, 0.0, 0.0, 1.6945969237043176E9, 0.0, 2023-09-13 11:22:03.704
15.0, -39.048497563421435, 187500.0, 187500.0, 187500.0, 187500.0, 187500.0, 187500.0, 187500.0, 0.026000000000000002, -0.018000000000000002, 1.008, 192.0, 0.0, 0.0, 0.0, 0.0, 0.0, 0.0, 0.0, 0.0, 0.0, 1.694596923704362E9, 0.0, 2023-09-13 11:22:03.704
16.0, -34.1758172721645, 187500.0, 187500.0, 187500.0, 187500.0, 187500.0, 187500.0, 187500.0, 0.026000000000000002, -0.018000000000000002, 1.008, 192.0, 0.0, 0.0, 0.0, 0.0, 0.0, 0.0, 0.0, 0.0, 0.0, 1.6945969237044084E9, 0.0, 2023-09-13 11:22:03.704
17.0, -15.847386818812707, 187500.0, 187500.0, 187500.0, 187500.0, 187500.0, 187500.0, 187500.0, 0.026000000000000002, -0.018000000000000002, 1.008, 192.0, 0.0, 0.0, 0.0, 0.0, 0.0, 0.0, 0.0, 0.0, 0.0, 1.694596923704707E9, 0.0, 2023-09-13 11:22:03.704
18.0, -11.33233443884068, 187500.0, 187500.0, 187500.0, 187500.0, 187500.0, 187500.0, 187500.0, 0.03, -0.014, 1.01, 192.0, 0.0, 240.0, 255.0, 144.0, 31.0, 144.0, 0.0, 0.0, 0.0, 1.6945969237047546E9, 0.0, 2023-09-13 11:22:03.704
19.0, -11.220575716564145, 187500.0, 187500.0, 187500.0, 187500.0, 187500.0, 187500.0, 187500.0, 0.03, -0.014, 1.01, 192.0, 0.0, 0.0, 0.0, 0.0, 0.0, 0.0, 0.0, 0.0, 0.0, 1.6945969237048E9, 0.0, 2023-09-13 11:22:03.704
20.0, -16.20501473009762, 187500.0, 187500.0, 187500.0, 187500.0, 187500.0, 187500.0, 187500.0, 0.03, -0.014, 1.01, 192.0, 0.0, 0.0, 0.0, 0.0, 0.0, 0.0, 0.0, 0.0, 0.0, 1.6945969237048445E9, 0.0, 2023-09-13 11:22:03.704
21.0, -34.73461088354718, 187500.0, 187500.0, 187500.0, 187500.0, 187500.0, 187500.0, 187500.0, 0.03, -0.014, 1.01, 192.0, 0.0, 0.0, 0.0, 0.0, 0.0, 0.0, 0.0, 0.0, 0.0, 1.6945969237048876E9, 0.0, 2023-09-13 11:22:03.704
22.0, -39.07084930787675, 187500.0, 187500.0, 187500.0, 187500.0, 187500.0, 187500.0, 187500.0, 0.03, -0.014, 1.01, 192.0, 0.0, 0.0, 0.0, 0.0, 0.0, 0.0, 0.0, 0.0, 0.0, 1.694596923704931E9, 0.0, 2023-09-13 11:22:03.704
23.0, -39.54023594143819, 187500.0, 187500.0, 187500.0, 187500.0, 187500.0, 187500.0, 187500.0, 0.03, -0.014, 1.01, 192.0, 0.0, 0.0, 0.0, 0.0, 0.0, 0.0, 0.0, 0.0, 0.0, 1.6945969237049823E9, 0.0, 2023-09-13 11:22:03.704
24.0, -34.220520761075115, 187500.0, 187500.0, 187500.0, 187500.0, 187500.0, 187500.0, 187500.0, 0.03, -0.014, 1.01, 192.0, 0.0, 0.0, 0.0, 0.0, 0.0, 0.0, 0.0, 0.0, 0.0, 1.694596923705093E9, 0.0, 2023-09-13 11:22:03.705
25.0, -15.579165885349022, 187500.0, 187500.0, 187500.0, 187500.0, 187500.0, 187500.0, 187500.0, 0.03, -0.014, 1.01, 192.0, 0.0, 0.0, 0.0, 0.0, 0.0, 0.0, 0.0, 0.0, 0.0, 1.6945969237051404E9, 0.0, 2023-09-13 11:22:03.705
26.0, -11.33233443884068, 187500.0, 187500.0, 187500.0, 187500.0, 187500.0, 187500.0, 187500.0, 0.03, -0.014, 1.01, 192.0, 0.0, 0.0, 0.0, 0.0, 0.0, 0.0, 0.0, 0.0, 0.0, 1.694596923705197E9, 0.0, 2023-09-13 11:22:03.705
27.0, -11.42174141666191, 187500.0, 187500.0, 187500.0, 187500.0, 187500.0, 187500.0, 187500.0, 0.03, -0.01, 1.008, 192.0, 0.0, 240.0, 255.0, 176.0, 31.0, 128.0, 0.0, 0.0, 0.0, 1.6945969237052388E9, 0.0, 2023-09-13 11:22:03.705
28.0, -16.339125196829464, 187500.0, 187500.0, 187500.0, 187500.0, 187500.0, 187500.0, 187500.0, 0.03, -0.01, 1.008, 192.0, 0.0, 0.0, 0.0, 0.0, 0.0, 0.0, 0.0, 0.0, 0.0, 1.6945969237052665E9, 0.0, 2023-09-13 11:22:03.705
29.0, -35.09223879483209, 187500.0, 187500.0, 187500.0, 187500.0, 187500.0, 187500.0, 187500.0, 0.03, -0.01, 1.008, 192.0, 0.0, 0.0, 0.0, 0.0, 0.0, 0.0, 0.0, 0.0, 0.0, 1.694596923705292E9, 0.0, 2023-09-13 11:22:03.705
30.0, -39.36142198579574, 187500.0, 187500.0, 187500.0, 187500.0, 187500.0, 187500.0, 187500.0, 0.03, -0.01, 1.008, 192.0, 0.0, 0.0, 0.0, 0.0, 0.0, 0.0, 0.0, 0.0, 0.0, 1.6945969237053225E9, 0.0, 2023-09-13 11:22:03.705
31.0, -39.42847721916166, 187500.0, 187500.0, 187500.0, 187500.0, 187500.0, 187500.0, 187500.0, 0.03, -0.01, 1.008, 192.0, 0.0, 0.0, 0.0, 0.0, 0.0, 0.0, 0.0, 0.0, 0.0, 1.6945969237053592E9, 0.0, 2023-09-13 11:22:03.705
32.0, -34.488741694538795, 187500.0, 187500.0, 187500.0, 187500.0, 187500.0, 187500.0, 187500.0, 0.03, -0.01, 1.008, 192.0, 0.0, 0.0, 0.0, 0.0, 0.0, 0.0, 0.0, 0.0, 0.0, 1.6945969237053988E9, 0.0, 2023-09-13 11:22:03.705
33.0, -15.802683329902093, 187500.0, 187500.0, 187500.0, 187500.0, 187500.0, 187500.0, 187500.0, 0.03, -0.01, 1.008, 192.0, 0.0, 0.0, 0.0, 0.0, 0.0, 0.0, 0.0, 0.0, 0.0, 1.6945969237054996E9, 0.0, 2023-09-13 11:22:03.705
34.0, -11.42174141666191, 187500.0, 187500.0, 187500.0, 187500.0, 187500.0, 187500.0, 187500.0, 0.03, -0.01, 1.008, 192.0, 0.0, 0.0, 0.0, 0.0, 0.0, 0.0, 0.0, 0.0, 0.0, 1.6945969237055264E9, 0.0, 2023-09-13 11:22:03.705
35.0, -11.42174141666191, 187500.0, 187500.0, 187500.0, 187500.0, 187500.0, 187500.0, 187500.0, 0.03, -0.01, 1.008, 192.0, 0.0, 0.0, 0.0, 0.0, 0.0, 0.0, 0.0, 0.0, 0.0, 1.6945969237055533E9, 0.0, 2023-09-13 11:22:03.705
36.0, -16.406180430195384, 187500.0, 187500.0, 187500.0, 187500.0, 187500.0, 187500.0, 187500.0, 0.03, -0.01, 1.008, 192.0, 0.0, 0.0, 0.0, 0.0, 0.0, 0.0, 0.0, 0.0, 0.0, 1.6945969237055788E9, 0.0, 2023-09-13 11:22:03.705
37.0, -34.53344518344941, 187500.0, 187500.0, 187500.0, 187500.0, 187500.0, 187500.0, 187500.0, 0.026000000000000002, -0.01, 1.0, 192.0, 0.0, 208.0, 255.0, 176.0, 31.0, 64.0, 0.0, 0.0, 0.0, 1.6945969237056048E9, 0.0, 2023-09-13 11:22:03.705
38.0, -39.38377373025104, 187500.0, 187500.0, 187500.0, 187500.0, 187500.0, 187500.0, 187500.0, 0.026000000000000002, -0.01, 1.0, 192.0, 0.0, 0.0, 0.0, 0.0, 0.0, 0.0, 0.0, 0.0, 0.0, 1.6945969237056305E9, 0.0, 2023-09-13 11:22:03.705
39.0, -39.2496632635192, 187500.0, 187500.0, 187500.0, 187500.0, 187500.0, 187500.0, 187500.0, 0.026000000000000002, -0.01, 1.0, 192.0, 0.0, 0.0, 0.0, 0.0, 0.0, 0.0, 0.0, 0.0, 0.0, 1.694596923705656E9, 0.0, 2023-09-13 11:22:03.705
40.0, -34.68990739463656, 187500.0, 187500.0, 187500.0, 187500.0, 187500.0, 187500.0, 187500.0, 0.026000000000000002, -0.01, 1.0, 192.0, 0.0, 0.0, 0.0, 0.0, 0.0, 0.0, 0.0, 0.0, 0.0, 1.6945969237056816E9, 0.0, 2023-09-13 11:22:03.705
41.0, -15.847386818812707, 187500.0, 187500.0, 187500.0, 187500.0, 187500.0, 187500.0, 187500.0, 0.026000000000000002, -0.01, 1.0, 192.0, 0.0, 0.0, 0.0, 0.0, 0.0, 0.0, 0.0, 0.0, 0.0, 1.6945969237057073E9, 0.0, 2023-09-13 11:22:03.705
42.0, -11.578203627849058, 187500.0, 187500.0, 187500.0, 187500.0, 187500.0, 187500.0, 187500.0, 0.026000000000000002, -0.01, 1.0, 192.0, 0.0, 0.0, 0.0, 0.0, 0.0, 0.0, 0.0, 0.0, 0.0, 1.6945969237057338E9, 0.0, 2023-09-13 11:22:03.705
43.0, -11.600555372304365, 187500.0, 187500.0, 187500.0, 187500.0, 187500.0, 187500.0, 187500.0, 0.026000000000000002, -0.01, 1.0, 192.0, 0.0, 0.0, 0.0, 0.0, 0.0, 0.0, 0.0, 0.0, 0.0, 1.6945969237057607E9, 0.0, 2023-09-13 11:22:03.705
44.0, -16.406180430195384, 187500.0, 187500.0, 187500.0, 187500.0, 187500.0, 187500.0, 187500.0, 0.026000000000000002, -0.01, 1.0, 192.0, 0.0, 0.0, 0.0, 0.0, 0.0, 0.0, 0.0, 0.0, 0.0, 1.6945969237057874E9, 0.0, 2023-09-13 11:22:03.705
45.0, -35.18164577265332, 187500.0, 187500.0, 187500.0, 187500.0, 187500.0, 187500.0, 187500.0, 0.026000000000000002, -0.01, 1.0, 192.0, 0.0, 0.0, 0.0, 0.0, 0.0, 0.0, 0.0, 0.0, 0.0, 1.6945969237058277E9, 0.0, 2023-09-13 11:22:03.705
46.0, -39.49553245252758, 187500.0, 187500.0, 187500.0, 187500.0, 187500.0, 187500.0, 187500.0, 0.026000000000000002, -0.01, 1.0, 192.0, 0.0, 0.0, 0.0, 0.0, 0.0, 0.0, 0.0, 0.0, 0.0, 1.694596923705854E9, 0.0, 2023-09-13 11:22:03.705
47.0, -39.2496632635192, 187500.0, 187500.0, 187500.0, 187500.0, 187500.0, 187500.0, 187500.0, 0.03, -0.012, 0.998, 192.0, 0.0, 240.0, 255.0, 160.0, 31.0, 48.0, 0.0, 0.0, 0.0, 1.6945969237058802E9, 0.0, 2023-09-13 11:22:03.705
48.0, -34.46638995008349, 187500.0, 187500.0, 187500.0, 187500.0, 187500.0, 187500.0, 187500.0, 0.03, -0.012, 0.998, 192.0, 0.0, 0.0, 0.0, 0.0, 0.0, 0.0, 0.0, 0.0, 0.0, 1.6945969237060344E9, 0.0, 2023-09-13 11:22:03.706
49.0, -15.892090307723322, 187500.0, 187500.0, 187500.0, 187500.0, 187500.0, 187500.0, 187500.0, 0.03, -0.012, 0.998, 192.0, 0.0, 0.0, 0.0, 0.0, 0.0, 0.0, 0.0, 0.0, 0.0, 1.6945969237060604E9, 0.0, 2023-09-13 11:22:03.706
50.0, -11.667610605670287, 187500.0, 187500.0, 187500.0, 187500.0, 187500.0, 187500.0, 187500.0, 0.03, -0.012, 0.998, 192.0, 0.0, 0.0, 0.0, 0.0, 0.0, 0.0, 0.0, 0.0, 0.0, 1.6945969237060854E9, 0.0, 2023-09-13 11:22:03.706
51.0, -11.309982694385374, 187500.0, 187500.0, 187500.0, 187500.0, 187500.0, 187500.0, 187500.0, 0.03, -0.012, 0.998, 192.0, 0.0, 0.0, 0.0, 0.0, 0.0, 0.0, 0.0, 0.0, 0.0, 1.6945969237061117E9, 0.0, 2023-09-13 11:22:03.706
52.0, -16.42853217465069, 187500.0, 187500.0, 187500.0, 187500.0, 187500.0, 187500.0, 187500.0, 0.03, -0.012, 0.998, 192.0, 0.0, 0.0, 0.0, 0.0, 0.0, 0.0, 0.0, 0.0, 0.0, 1.6945969237061386E9, 0.0, 2023-09-13 11:22:03.706
53.0, -35.51692193948292, 187500.0, 187500.0, 187500.0, 187500.0, 187500.0, 187500.0, 187500.0, 0.03, -0.012, 0.998, 192.0, 0.0, 0.0, 0.0, 0.0, 0.0, 0.0, 0.0, 0.0, 0.0, 1.6945969237061667E9, 0.0, 2023-09-13 11:22:03.706
54.0, -39.49553245252758, 187500.0, 187500.0, 187500.0, 187500.0, 187500.0, 187500.0, 187500.0, 0.03, -0.012, 0.998, 192.0, 0.0, 0.0, 0.0, 0.0, 0.0, 0.0, 0.0, 0.0, 0.0, 1.6945969237061937E9, 0.0, 2023-09-13 11:22:03.706
55.0, -39.093201052332056, 187500.0, 187500.0, 187500.0, 187500.0, 187500.0, 187500.0, 187500.0, 0.03, -0.012, 0.998, 192.0, 0.0, 0.0, 0.0, 0.0, 0.0, 0.0, 0.0, 0.0, 0.0, 1.694596923706218E9, 0.0, 2023-09-13 11:22:03.706
56.0, -34.354631227806955, 187500.0, 187500.0, 187500.0, 187500.0, 187500.0, 187500.0, 187500.0, 0.03, -0.012, 0.998, 192.0, 0.0, 0.0, 0.0, 0.0, 0.0, 0.0, 0.0, 0.0, 0.0, 1.6945969237062423E9, 0.0, 2023-09-13 11:22:03.706
57.0, -16.026200774455162, 187500.0, 187500.0, 187500.0, 187500.0, 187500.0, 187500.0, 187500.0, 0.036000000000000004, -0.012, 1.006, 192.0, 1.0, 32.0, 255.0, 160.0, 31.0, 112.0, 0.0, 0.0, 0.0, 1.694596923706267E9, 0.0, 2023-09-13 11:22:03.706
58.0, -11.64525886121498, 187500.0, 187500.0, 187500.0, 187500.0, 187500.0, 187500.0, 187500.0, 0.036000000000000004, -0.012, 1.006, 192.0, 0.0, 0.0, 0.0, 0.0, 0.0, 0.0, 0.0, 0.0, 0.0, 1.6945969237062943E9, 0.0, 2023-09-13 11:22:03.706
59.0, -11.42174141666191, 187500.0, 187500.0, 187500.0, 187500.0, 187500.0, 187500.0, 187500.0, 0.036000000000000004, -0.012, 1.006, 192.0, 0.0, 0.0, 0.0, 0.0, 0.0, 0.0, 0.0, 0.0, 0.0, 1.6945969237063203E9, 0.0, 2023-09-13 11:22:03.706
60.0, -16.07090426336578, 187500.0, 187500.0, 187500.0, 187500.0, 187500.0, 187500.0, 187500.0, 0.036000000000000004, -0.012, 1.006, 192.0, 0.0, 0.0, 0.0, 0.0, 0.0, 0.0, 0.0, 0.0, 0.0, 1.6945969237063472E9, 0.0, 2023-09-13 11:22:03.706
61.0, -34.84636960582371, 187500.0, 187500.0, 187500.0, 187500.0, 187500.0, 187500.0, 187500.0, 0.036000000000000004, -0.012, 1.006, 192.0, 0.0, 0.0, 0.0, 0.0, 0.0, 0.0, 0.0, 0.0, 0.0, 1.6945969237063713E9, 0.0, 2023-09-13 11:22:03.706
62.0, -39.36142198579574, 187500.0, 187500.0, 187500.0, 187500.0, 187500.0, 187500.0, 187500.0, 0.036000000000000004, -0.012, 1.006, 192.0, 0.0, 0.0, 0.0, 0.0, 0.0, 0.0, 0.0, 0.0, 0.0, 1.6945969237063985E9, 0.0, 2023-09-13 11:22:03.706
63.0, -39.31671849688512, 187500.0, 187500.0, 187500.0, 187500.0, 187500.0, 187500.0, 187500.0, 0.036000000000000004, -0.012, 1.006, 192.0, 0.0, 0.0, 0.0, 0.0, 0.0, 0.0, 0.0, 0.0, 0.0, 1.6945969237064793E9, 0.0, 2023-09-13 11:22:03.706
64.0, -34.600500416815336, 187500.0, 187500.0, 187500.0, 187500.0, 187500.0, 187500.0, 187500.0, 0.036000000000000004, -0.012, 1.006, 192.0, 0.0, 0.0, 0.0, 0.0, 0.0, 0.0, 0.0, 0.0, 0.0, 1.6945969237065063E9, 0.0, 2023-09-13 11:22:03.706
65.0, -15.914442052178629, 187500.0, 187500.0, 187500.0, 187500.0, 187500.0, 187500.0, 187500.0, 0.036000000000000004, -0.012, 1.006, 192.0, 0.0, 0.0, 0.0, 0.0, 0.0, 0.0, 0.0, 0.0, 0.0, 1.694596923706532E9, 0.0, 2023-09-13 11:22:03.706
66.0, -11.10881699428761, 187500.0, 187500.0, 187500.0, 187500.0, 187500.0, 187500.0, 187500.0, 0.036000000000000004, -0.012, 1.006, 192.0, 0.0, 0.0, 0.0, 0.0, 0.0, 0.0, 0.0, 0.0, 0.0, 1.6945969237065651E9, 0.0, 2023-09-13 11:22:03.706
67.0, -11.555851883393752, 187500.0, 187500.0, 187500.0, 187500.0, 187500.0, 187500.0, 187500.0, 0.028, -0.012, 1.006, 192.0, 0.0, 224.0, 255.0, 160.0, 31.0, 112.0, 0.0, 0.0, 0.0, 1.6945969237065907E9, 0.0, 2023-09-13 11:22:03.706
68.0, -16.27206996346354, 187500.0, 187500.0, 187500.0, 187500.0, 187500.0, 187500.0, 187500.0, 0.028, -0.012, 1.006, 192.0, 0.0, 0.0, 0.0, 0.0, 0.0, 0.0, 0.0, 0.0, 0.0, 1.6945969237066188E9, 0.0, 2023-09-13 11:22:03.706
69.0, -35.025183561466164, 187500.0, 187500.0, 187500.0, 187500.0, 187500.0, 187500.0, 187500.0, 0.028, -0.012, 1.006, 192.0, 0.0, 0.0, 0.0, 0.0, 0.0, 0.0, 0.0, 0.0, 0.0, 1.6945969237066455E9, 0.0, 2023-09-13 11:22:03.706
70.0, -39.27201500797451, 187500.0, 187500.0, 187500.0, 187500.0, 187500.0, 187500.0, 187500.0, 0.028, -0.012, 1.006, 192.0, 0.0, 0.0, 0.0, 0.0, 0.0, 0.0, 0.0, 0.0, 0.0, 1.6945969237066724E9, 0.0, 2023-09-13 11:22:03.706
71.0, -39.38377373025104, 187500.0, 187500.0, 187500.0, 187500.0, 187500.0, 187500.0, 187500.0, 0.028, -0.012, 1.006, 192.0, 0.0, 0.0, 0.0, 0.0, 0.0, 0.0, 0.0, 0.0, 0.0, 1.6945969237066972E9, 0.0, 2023-09-13 11:22:03.706
72.0, -34.68990739463656, 187500.0, 187500.0, 187500.0, 187500.0, 187500.0, 187500.0, 187500.0, 0.028, -0.012, 1.006, 192.0, 0.0, 0.0, 0.0, 0.0, 0.0, 0.0, 0.0, 0.0, 0.0, 1.6945969237067237E9, 0.0, 2023-09-13 11:22:03.706
73.0, -16.182662985642313, 187500.0, 187500.0, 187500.0, 187500.0, 187500.0, 187500.0, 187500.0, 0.028, -0.012, 1.006, 192.0, 0.0, 0.0, 0.0, 0.0, 0.0, 0.0, 0.0, 0.0, 0.0, 1.69459692370675E9, 0.0, 2023-09-13 11:22:03.706
74.0, -11.48879665002783, 187500.0, 187500.0, 187500.0, 187500.0, 187500.0, 187500.0, 187500.0, 0.028, -0.012, 1.006, 192.0, 0.0, 0.0, 0.0, 0.0, 0.0, 0.0, 0.0, 0.0, 0.0, 1.694596923706776E9, 0.0, 2023-09-13 11:22:03.706
75.0, -11.309982694385374, 187500.0, 187500.0, 187500.0, 187500.0, 187500.0, 187500.0, 187500.0, 0.028, -0.012, 1.006, 192.0, 0.0, 0.0, 0.0, 0.0, 0.0, 0.0, 0.0, 0.0, 0.0, 1.694596923706802E9, 0.0, 2023-09-13 11:22:03.706
76.0, -16.249718219008233, 187500.0, 187500.0, 187500.0, 187500.0, 187500.0, 187500.0, 187500.0, 0.028, -0.012, 1.006, 192.0, 0.0, 0.0, 0.0, 0.0, 0.0, 0.0, 0.0, 0.0, 0.0, 1.6945969237068293E9, 0.0, 2023-09-13 11:22:03.706
77.0, -35.1145905392874, 187500.0, 187500.0, 187500.0, 187500.0, 187500.0, 187500.0, 187500.0, 0.028, -0.012, 1.006, 192.0, 0.0, 224.0, 255.0, 160.0, 31.0, 112.0, 0.0, 0.0, 0.0, 1.694596923706856E9, 0.0, 2023-09-13 11:22:03.706
78.0, -39.629642919259425, 187500.0, 187500.0, 187500.0, 187500.0, 187500.0, 187500.0, 187500.0, 0.028, -0.012, 1.006, 192.0, 0.0, 0.0, 0.0, 0.0, 0.0, 0.0, 0.0, 0.0, 0.0, 1.6945969237068837E9, 0.0, 2023-09-13 11:22:03.706
79.0, -39.42847721916166, 187500.0, 187500.0, 187500.0, 187500.0, 187500.0, 187500.0, 187500.0, 0.028, -0.012, 1.006, 192.0, 0.0, 0.0, 0.0, 0.0, 0.0, 0.0, 0.0, 0.0, 0.0, 1.6945969237070053E9, 0.0, 2023-09-13 11:22:03.707
80.0, -34.39933471671757, 187500.0, 187500.0, 187500.0, 187500.0, 187500.0, 187500.0, 187500.0, 0.028, -0.012, 1.006, 192.0, 0.0, 0.0, 0.0, 0.0, 0.0, 0.0, 0.0, 0.0, 0.0, 1.6945969237070563E9, 0.0, 2023-09-13 11:22:03.707
81.0, -15.690924607625558, 187500.0, 187500.0, 187500.0, 187500.0, 187500.0, 187500.0, 187500.0, 0.028, -0.012, 1.006, 192.0, 0.0, 0.0, 0.0, 0.0, 0.0, 0.0, 0.0, 0.0, 0.0, 1.69459692370712E9, 0.0, 2023-09-13 11:22:03.707
82.0, -11.220575716564145, 187500.0, 187500.0, 187500.0, 187500.0, 187500.0, 187500.0, 187500.0, 0.028, -0.012, 1.006, 192.0, 0.0, 0.0, 0.0, 0.0, 0.0, 0.0, 0.0, 0.0, 0.0, 1.694596923707189E9, 0.0, 2023-09-13 11:22:03.707
83.0, -11.04176176092169, 187500.0, 187500.0, 187500.0, 187500.0, 187500.0, 187500.0, 187500.0, 0.028, -0.012, 1.006, 192.0, 0.0, 0.0, 0.0, 0.0, 0.0, 0.0, 0.0, 0.0, 0.0, 1.6945969237072573E9, 0.0, 2023-09-13 11:22:03.707
84.0, -16.316773452374157, 187500.0, 187500.0, 187500.0, 187500.0, 187500.0, 187500.0, 187500.0, 0.028, -0.012, 1.006, 192.0, 0.0, 0.0, 0.0, 0.0, 0.0, 0.0, 0.0, 0.0, 0.0, 1.6945969237073247E9, 0.0, 2023-09-13 11:22:03.707
85.0, -35.04753530592147, 187500.0, 187500.0, 187500.0, 187500.0, 187500.0, 187500.0, 187500.0, 0.028, -0.012, 1.006, 192.0, 0.0, 0.0, 0.0, 0.0, 0.0, 0.0, 0.0, 0.0, 0.0, 1.694596923707364E9, 0.0, 2023-09-13 11:22:03.707
86.0, -39.42847721916166, 187500.0, 187500.0, 187500.0, 187500.0, 187500.0, 187500.0, 187500.0, 0.028, -0.012, 1.006, 192.0, 0.0, 0.0, 0.0, 0.0, 0.0, 0.0, 0.0, 0.0, 0.0, 1.6945969237074037E9, 0.0, 2023-09-13 11:22:03.707
87.0, -39.36142198579574, 187500.0, 187500.0, 187500.0, 187500.0, 187500.0, 187500.0, 187500.0, 0.026000000000000002, -0.016, 1.004, 192.0, 0.0, 208.0, 255.0, 128.0, 31.0, 96.0, 0.0, 0.0, 0.0, 1.694596923707454E9, 0.0, 2023-09-13 11:22:03.707
88.0, -34.421686461172875, 187500.0, 187500.0, 187500.0, 187500.0, 187500.0, 187500.0, 187500.0, 0.026000000000000002, -0.016, 1.004, 192.0, 0.0, 0.0, 0.0, 0.0, 0.0, 0.0, 0.0, 0.0, 0.0, 1.6945969237075377E9, 0.0, 2023-09-13 11:22:03.707
89.0, -15.892090307723322, 187500.0, 187500.0, 187500.0, 187500.0, 187500.0, 187500.0, 187500.0, 0.026000000000000002, -0.016, 1.004, 192.0, 0.0, 0.0, 0.0, 0.0, 0.0, 0.0, 0.0, 0.0, 0.0, 1.6945969237075863E9, 0.0, 2023-09-13 11:22:03.707
90.0, -11.48879665002783, 187500.0, 187500.0, 187500.0, 187500.0, 187500.0, 187500.0, 187500.0, 0.026000000000000002, -0.016, 1.004, 192.0, 0.0, 0.0, 0.0, 0.0, 0.0, 0.0, 0.0, 0.0, 0.0, 1.69459692370765E9, 0.0, 2023-09-13 11:22:03.707
91.0, -11.555851883393752, 187500.0, 187500.0, 187500.0, 187500.0, 187500.0, 187500.0, 187500.0, 0.026000000000000002, -0.016, 1.004, 192.0, 0.0, 0.0, 0.0, 0.0, 0.0, 0.0, 0.0, 0.0, 0.0, 1.694596923707693E9, 0.0, 2023-09-13 11:22:03.707
92.0, -16.58499438583784, 187500.0, 187500.0, 187500.0, 187500.0, 187500.0, 187500.0, 187500.0, 0.026000000000000002, -0.016, 1.004, 192.0, 0.0, 0.0, 0.0, 0.0, 0.0, 0.0, 0.0, 0.0, 0.0, 1.6945969237077491E9, 0.0, 2023-09-13 11:22:03.707
93.0, -35.15929402819801, 187500.0, 187500.0, 187500.0, 187500.0, 187500.0, 187500.0, 187500.0, 0.026000000000000002, -0.016, 1.004, 192.0, 0.0, 0.0, 0.0, 0.0, 0.0, 0.0, 0.0, 0.0, 0.0, 1.6945969237078106E9, 0.0, 2023-09-13 11:22:03.707
94.0, -39.38377373025104, 187500.0, 187500.0, 187500.0, 187500.0, 187500.0, 187500.0, 187500.0, 0.026000000000000002, -0.016, 1.004, 192.0, 0.0, 0.0, 0.0, 0.0, 0.0, 0.0, 0.0, 0.0, 0.0, 1.6945969237082036E9, 0.0, 2023-09-13 11:22:03.708
95.0, -39.18260803015328, 187500.0, 187500.0, 187500.0, 187500.0, 187500.0, 187500.0, 187500.0, 0.026000000000000002, -0.016, 1.004, 192.0, 0.0, 0.0, 0.0, 0.0, 0.0, 0.0, 0.0, 0.0, 0.0, 1.6945969237082565E9, 0.0, 2023-09-13 11:22:03.708
96.0, -34.46638995008349, 187500.0, 187500.0, 187500.0, 187500.0, 187500.0, 187500.0, 187500.0, 0.026000000000000002, -0.016, 1.004, 192.0, 0.0, 0.0, 0.0, 0.0, 0.0, 0.0, 0.0, 0.0, 0.0, 1.6945969237083066E9, 0.0, 2023-09-13 11:22:03.708
97.0, -15.735628096536171, 187500.0, 187500.0, 187500.0, 187500.0, 187500.0, 187500.0, 187500.0, 0.024, -0.014, 1.002, 192.0, 0.0, 192.0, 255.0, 144.0, 31.0, 80.0, 0.0, 0.0, 0.0, 1.6945969237083447E9, 0.0, 2023-09-13 11:22:03.708
98.0, -11.444093161117216, 187500.0, 187500.0, 187500.0, 187500.0, 187500.0, 187500.0, 187500.0, 0.024, -0.014, 1.002, 192.0, 0.0, 0.0, 0.0, 0.0, 0.0, 0.0, 0.0, 0.0, 0.0, 1.6945969237083735E9, 0.0, 2023-09-13 11:22:03.708
99.0, -11.466444905572523, 187500.0, 187500.0, 187500.0, 187500.0, 187500.0, 187500.0, 187500.0, 0.024, -0.014, 1.002, 192.0, 0.0, 0.0, 0.0, 0.0, 0.0, 0.0, 0.0, 0.0, 0.0, 1.6945969237084012E9, 0.0, 2023-09-13 11:22:03.708
100.0, -16.406180430195384, 187500.0, 187500.0, 187500.0, 187500.0, 187500.0, 187500.0, 187500.0, 0.024, -0.014, 1.002, 192.0, 0.0, 0.0, 0.0, 0.0, 0.0, 0.0, 0.0, 0.0, 0.0, 1.694596923708428E9, 0.0, 2023-09-13 11:22:03.708
101.0, -34.8016661169131, 187500.0, 187500.0, 187500.0, 187500.0, 187500.0, 187500.0, 187500.0, 0.024, -0.014, 1.002, 192.0, 0.0, 0.0, 0.0, 0.0, 0.0, 0.0, 0.0, 0.0, 0.0, 1.69459692370847E9, 0.0, 2023-09-13 11:22:03.708
102.0, -39.093201052332056, 187500.0, 187500.0, 187500.0, 187500.0, 187500.0, 187500.0, 187500.0, 0.024, -0.014, 1.002, 192.0, 0.0, 0.0, 0.0, 0.0, 0.0, 0.0, 0.0, 0.0, 0.0, 1.6945969237085087E9, 0.0, 2023-09-13 11:22:03.708
103.0, -39.36142198579574, 187500.0, 187500.0, 187500.0, 187500.0, 187500.0, 187500.0, 187500.0, 0.024, -0.014, 1.002, 192.0, 0.0, 0.0, 0.0, 0.0, 0.0, 0.0, 0.0, 0.0, 0.0, 1.6945969237085505E9, 0.0, 2023-09-13 11:22:03.708
104.0, -34.39933471671757, 187500.0, 187500.0, 187500.0, 187500.0, 187500.0, 187500.0, 187500.0, 0.024, -0.014, 1.002, 192.0, 0.0, 0.0, 0.0, 0.0, 0.0, 0.0, 0.0, 0.0, 0.0, 1.6945969237085783E9, 0.0, 2023-09-13 11:22:03.708
105.0, -15.780331585446786, 187500.0, 187500.0, 187500.0, 187500.0, 187500.0, 187500.0, 187500.0, 0.024, -0.014, 1.002, 192.0, 0.0, 0.0, 0.0, 0.0, 0.0, 0.0, 0.0, 0.0, 0.0, 1.694596923708603E9, 0.0, 2023-09-13 11:22:03.708
106.0, -11.10881699428761, 187500.0, 187500.0, 187500.0, 187500.0, 187500.0, 187500.0, 187500.0, 0.024, -0.014, 1.002, 192.0, 0.0, 0.0, 0.0, 0.0, 0.0, 0.0, 0.0, 0.0, 0.0, 1.694596923708627E9, 0.0, 2023-09-13 11:22:03.708
107.0, -11.175872227653532, 187500.0, 187500.0, 187500.0, 187500.0, 187500.0, 187500.0, 187500.0, 0.02, -0.012, 1.004, 192.0, 0.0, 160.0, 255.0, 160.0, 31.0, 96.0, 0.0, 0.0, 0.0, 1.6945969237086515E9, 0.0, 2023-09-13 11:22:03.708
108.0, -16.49558740801661, 187500.0, 187500.0, 187500.0, 187500.0, 187500.0, 187500.0, 187500.0, 0.02, -0.012, 1.004, 192.0, 0.0, 0.0, 0.0, 0.0, 0.0, 0.0, 0.0, 0.0, 0.0, 1.6945969237086778E9, 0.0, 2023-09-13 11:22:03.708
109.0, -35.1145905392874, 187500.0, 187500.0, 187500.0, 187500.0, 187500.0, 187500.0, 187500.0, 0.02, -0.012, 1.004, 192.0, 0.0, 0.0, 0.0, 0.0, 0.0, 0.0, 0.0, 0.0, 0.0, 1.6945969237087605E9, 0.0, 2023-09-13 11:22:03.708
110.0, -39.49553245252758, 187500.0, 187500.0, 187500.0, 187500.0, 187500.0, 187500.0, 187500.0, 0.02, -0.012, 1.004, 192.0, 0.0, 0.0, 0.0, 0.0, 0.0, 0.0, 0.0, 0.0, 0.0, 1.6945969237087853E9, 0.0, 2023-09-13 11:22:03.708
111.0, -39.71904989708065, 187500.0, 187500.0, 187500.0, 187500.0, 187500.0, 187500.0, 187500.0, 0.02, -0.012, 1.004, 192.0, 0.0, 0.0, 0.0, 0.0, 0.0, 0.0, 0.0, 0.0, 0.0, 1.6945969237088094E9, 0.0, 2023-09-13 11:22:03.708
112.0, -34.91342483918963, 187500.0, 187500.0, 187500.0, 187500.0, 187500.0, 187500.0, 187500.0, 0.02, -0.012, 1.004, 192.0, 0.0, 0.0, 0.0, 0.0, 0.0, 0.0, 0.0, 0.0, 0.0, 1.6945969237088337E9, 0.0, 2023-09-13 11:22:03.708
113.0, -16.048552518910473, 187500.0, 187500.0, 187500.0, 187500.0, 187500.0, 187500.0, 187500.0, 0.02, -0.012, 1.004, 192.0, 0.0, 0.0, 0.0, 0.0, 0.0, 0.0, 0.0, 0.0, 0.0, 1.6945969237088575E9, 0.0, 2023-09-13 11:22:03.708
114.0, -11.48879665002783, 187500.0, 187500.0, 187500.0, 187500.0, 187500.0, 187500.0, 187500.0, 0.02, -0.012, 1.004, 192.0, 0.0, 0.0, 0.0, 0.0, 0.0, 0.0, 0.0, 0.0, 0.0, 1.694596923708882E9, 0.0, 2023-09-13 11:22:03.708
115.0, -11.287630949930067, 187500.0, 187500.0, 187500.0, 187500.0, 187500.0, 187500.0, 187500.0, 0.02, -0.012, 1.004, 192.0, 0.0, 0.0, 0.0, 0.0, 0.0, 0.0, 0.0, 0.0, 0.0, 1.6945969237089062E9, 0.0, 2023-09-13 11:22:03.708
116.0, -16.20501473009762, 187500.0, 187500.0, 187500.0, 187500.0, 187500.0, 187500.0, 187500.0, 0.02, -0.012, 1.004, 192.0, 0.0, 0.0, 0.0, 0.0, 0.0, 0.0, 0.0, 0.0, 0.0, 1.6945969237089305E9, 0.0, 2023-09-13 11:22:03.708
117.0, -34.891073094734324, 187500.0, 187500.0, 187500.0, 187500.0, 187500.0, 187500.0, 187500.0, 0.024, -0.016, 1.006, 192.0, 0.0, 192.0, 255.0, 128.0, 31.0, 112.0, 0.0, 0.0, 0.0, 1.6945969237089574E9, 0.0, 2023-09-13 11:22:03.708
118.0, -39.093201052332056, 187500.0, 187500.0, 187500.0, 187500.0, 187500.0, 187500.0, 187500.0, 0.024, -0.016, 1.006, 192.0, 0.0, 0.0, 0.0, 0.0, 0.0, 0.0, 0.0, 0.0, 0.0, 1.6945969237089827E9, 0.0, 2023-09-13 11:22:03.708
119.0, -39.47318070807227, 187500.0, 187500.0, 187500.0, 187500.0, 187500.0, 187500.0, 187500.0, 0.024, -0.016, 1.006, 192.0, 0.0, 0.0, 0.0, 0.0, 0.0, 0.0, 0.0, 0.0, 0.0, 1.6945969237090073E9, 0.0, 2023-09-13 11:22:03.709
120.0, -34.600500416815336, 187500.0, 187500.0, 187500.0, 187500.0, 187500.0, 187500.0, 187500.0, 0.024, -0.016, 1.006, 192.0, 0.0, 0.0, 0.0, 0.0, 0.0, 0.0, 0.0, 0.0, 0.0, 1.694596923709031E9, 0.0, 2023-09-13 11:22:03.709
121.0, -15.8250350743574, 187500.0, 187500.0, 187500.0, 187500.0, 187500.0, 187500.0, 187500.0, 0.024, -0.016, 1.006, 192.0, 0.0, 0.0, 0.0, 0.0, 0.0, 0.0, 0.0, 0.0, 0.0, 1.694596923709056E9, 0.0, 2023-09-13 11:22:03.709
122.0, -11.42174141666191, 187500.0, 187500.0, 187500.0, 187500.0, 187500.0, 187500.0, 187500.0, 0.024, -0.016, 1.006, 192.0, 0.0, 0.0, 0.0, 0.0, 0.0, 0.0, 0.0, 0.0, 0.0, 1.6945969241841152E9, 0.0, 2023-09-13 11:22:04.184
123.0, -11.42174141666191, 187500.0, 187500.0, 187500.0, 187500.0, 187500.0, 187500.0, 187500.0, 0.024, -0.016, 1.006, 192.0, 0.0, 0.0, 0.0, 0.0, 0.0, 0.0, 0.0, 0.0, 0.0, 1.694596924184379E9, 0.0, 2023-09-13 11:22:04.184
124.0, -16.294421707918847, 187500.0, 187500.0, 187500.0, 187500.0, 187500.0, 187500.0, 187500.0, 0.024, -0.016, 1.006, 192.0, 0.0, 0.0, 0.0, 0.0, 0.0, 0.0, 0.0, 0.0, 0.0, 1.6945969241845715E9, 0.0, 2023-09-13 11:22:04.184
125.0, -34.86872135027902, 187500.0, 187500.0, 187500.0, 187500.0, 187500.0, 187500.0, 187500.0, 0.024, -0.016, 1.006, 192.0, 0.0, 0.0, 0.0, 0.0, 0.0, 0.0, 0.0, 0.0, 0.0, 1.6945969241850748E9, 0.0, 2023-09-13 11:22:04.185
126.0, -39.20495977460859, 187500.0, 187500.0, 187500.0, 187500.0, 187500.0, 187500.0, 187500.0, 0.024, -0.016, 1.006, 192.0, 0.0, 0.0, 0.0, 0.0, 0.0, 0.0, 0.0, 0.0, 0.0, 1.6945969241852121E9, 0.0, 2023-09-13 11:22:04.185
127.0, -39.40612547470635, 187500.0, 187500.0, 187500.0, 187500.0, 187500.0, 187500.0, 187500.0, 0.026000000000000002, -0.012, 1.006, 192.0, 0.0, 208.0, 255.0, 160.0, 31.0, 112.0, 0.0, 0.0, 0.0, 1.6945969241853168E9, 0.0, 2023-09-13 11:22:04.185
128.0, -34.73461088354718, 187500.0, 187500.0, 187500.0, 187500.0, 187500.0, 187500.0, 187500.0, 0.026000000000000002, -0.012, 1.006, 192.0, 0.0, 0.0, 0.0, 0.0, 0.0, 0.0, 0.0, 0.0, 0.0, 1.694596924185377E9, 0.0, 2023-09-13 11:22:04.185
129.0, -15.735628096536171, 187500.0, 187500.0, 187500.0, 187500.0, 187500.0, 187500.0, 187500.0, 0.026000000000000002, -0.012, 1.006, 192.0, 0.0, 0.0, 0.0, 0.0, 0.0, 0.0, 0.0, 0.0, 0.0, 1.6945969241854193E9, 0.0, 2023-09-13 11:22:04.185
130.0, -11.10881699428761, 187500.0, 187500.0, 187500.0, 187500.0, 187500.0, 187500.0, 187500.0, 0.026000000000000002, -0.012, 1.006, 192.0, 0.0, 0.0, 0.0, 0.0, 0.0, 0.0, 0.0, 0.0, 0.0, 1.6945969241854672E9, 0.0, 2023-09-13 11:22:04.185
131.0, -11.309982694385374, 187500.0, 187500.0, 187500.0, 187500.0, 187500.0, 187500.0, 187500.0, 0.026000000000000002, -0.012, 1.006, 192.0, 0.0, 0.0, 0.0, 0.0, 0.0, 0.0, 0.0, 0.0, 0.0, 1.6945969241855285E9, 0.0, 2023-09-13 11:22:04.185
132.0, -16.562642641382535, 187500.0, 187500.0, 187500.0, 187500.0, 187500.0, 187500.0, 187500.0, 0.026000000000000002, -0.012, 1.006, 192.0, 0.0, 0.0, 0.0, 0.0, 0.0, 0.0, 0.0, 0.0, 0.0, 1.694596924185577E9, 0.0, 2023-09-13 11:22:04.185
133.0, -35.22634926156393, 187500.0, 187500.0, 187500.0, 187500.0, 187500.0, 187500.0, 187500.0, 0.026000000000000002, -0.012, 1.006, 192.0, 0.0, 0.0, 0.0, 0.0, 0.0, 0.0, 0.0, 0.0, 0.0, 1.694596924185609E9, 0.0, 2023-09-13 11:22:04.185
134.0, -39.58493943034881, 187500.0, 187500.0, 187500.0, 187500.0, 187500.0, 187500.0, 187500.0, 0.026000000000000002, -0.012, 1.006, 192.0, 0.0, 0.0, 0.0, 0.0, 0.0, 0.0, 0.0, 0.0, 0.0, 1.694596924185635E9, 0.0, 2023-09-13 11:22:04.185
135.0, -39.31671849688512, 187500.0, 187500.0, 187500.0, 187500.0, 187500.0, 187500.0, 187500.0, 0.026000000000000002, -0.012, 1.006, 192.0, 0.0, 0.0, 0.0, 0.0, 0.0, 0.0, 0.0, 0.0, 0.0, 1.694596924185663E9, 0.0, 2023-09-13 11:22:04.185
136.0, -34.30992773889634, 187500.0, 187500.0, 187500.0, 187500.0, 187500.0, 187500.0, 187500.0, 0.026000000000000002, -0.012, 1.006, 192.0, 0.0, 0.0, 0.0, 0.0, 0.0, 0.0, 0.0, 0.0, 0.0, 1.694596924185694E9, 0.0, 2023-09-13 11:22:04.185
137.0, -15.8250350743574, 187500.0, 187500.0, 187500.0, 187500.0, 187500.0, 187500.0, 187500.0, 0.022, -0.012, 1.004, 192.0, 0.0, 176.0, 255.0, 160.0, 31.0, 96.0, 0.0, 0.0, 0.0, 1.6945969241857216E9, 0.0, 2023-09-13 11:22:04.185
138.0, -11.734665839036207, 187500.0, 187500.0, 187500.0, 187500.0, 187500.0, 187500.0, 187500.0, 0.022, -0.012, 1.004, 192.0, 0.0, 0.0, 0.0, 0.0, 0.0, 0.0, 0.0, 0.0, 0.0, 1.69459692418575E9, 0.0, 2023-09-13 11:22:04.185
139.0, -11.7123140945809, 187500.0, 187500.0, 187500.0, 187500.0, 187500.0, 187500.0, 187500.0, 0.022, -0.012, 1.004, 192.0, 0.0, 0.0, 0.0, 0.0, 0.0, 0.0, 0.0, 0.0, 0.0, 1.6945969241857781E9, 0.0, 2023-09-13 11:22:04.185
140.0, -16.629697874748455, 187500.0, 187500.0, 187500.0, 187500.0, 187500.0, 187500.0, 187500.0, 0.022, -0.012, 1.004, 192.0, 0.0, 0.0, 0.0, 0.0, 0.0, 0.0, 0.0, 0.0, 0.0, 1.69459692418601E9, 0.0, 2023-09-13 11:22:04.186
141.0, -35.29340449492985, 187500.0, 187500.0, 187500.0, 187500.0, 187500.0, 187500.0, 187500.0, 0.022, -0.012, 1.004, 192.0, 0.0, 0.0, 0.0, 0.0, 0.0, 0.0, 0.0, 0.0, 0.0, 1.6945969241860523E9, 0.0, 2023-09-13 11:22:04.186
142.0, -39.27201500797451, 187500.0, 187500.0, 187500.0, 187500.0, 187500.0, 187500.0, 187500.0, 0.022, -0.012, 1.004, 192.0, 0.0, 0.0, 0.0, 0.0, 0.0, 0.0, 0.0, 0.0, 0.0, 1.694596924186086E9, 0.0, 2023-09-13 11:22:04.186
143.0, -39.49553245252758, 187500.0, 187500.0, 187500.0, 187500.0, 187500.0, 187500.0, 187500.0, 0.022, -0.012, 1.004, 192.0, 0.0, 0.0, 0.0, 0.0, 0.0, 0.0, 0.0, 0.0, 0.0, 1.694596924186122E9, 0.0, 2023-09-13 11:22:04.186
144.0, -34.53344518344941, 187500.0, 187500.0, 187500.0, 187500.0, 187500.0, 187500.0, 187500.0, 0.022, -0.012, 1.004, 192.0, 0.0, 0.0, 0.0, 0.0, 0.0, 0.0, 0.0, 0.0, 0.0, 1.694596924186164E9, 0.0, 2023-09-13 11:22:04.186
145.0, -15.780331585446786, 187500.0, 187500.0, 187500.0, 187500.0, 187500.0, 187500.0, 187500.0, 0.022, -0.012, 1.004, 192.0, 0.0, 0.0, 0.0, 0.0, 0.0, 0.0, 0.0, 0.0, 0.0, 1.6945969241861973E9, 0.0, 2023-09-13 11:22:04.186
146.0, -11.10881699428761, 187500.0, 187500.0, 187500.0, 187500.0, 187500.0, 187500.0, 187500.0, 0.024, -0.012, 1.006, 192.0, 0.0, 192.0, 255.0, 160.0, 31.0, 112.0, 0.0, 0.0, 0.0, 1.694596924186231E9, 0.0, 2023-09-13 11:22:04.186
147.0, -11.377037927751294, 187500.0, 187500.0, 187500.0, 187500.0, 187500.0, 187500.0, 187500.0, 0.024, -0.012, 1.006, 192.0, 0.0, 0.0, 0.0, 0.0, 0.0, 0.0, 0.0, 0.0, 0.0, 1.6945969241862707E9, 0.0, 2023-09-13 11:22:04.186
148.0, -16.42853217465069, 187500.0, 187500.0, 187500.0, 187500.0, 187500.0, 187500.0, 187500.0, 0.024, -0.012, 1.006, 192.0, 0.0, 0.0, 0.0, 0.0, 0.0, 0.0, 0.0, 0.0, 0.0, 1.694596924186303E9, 0.0, 2023-09-13 11:22:04.186
149.0, -34.958128328100244, 187500.0, 187500.0, 187500.0, 187500.0, 187500.0, 187500.0, 187500.0, 0.024, -0.012, 1.006, 192.0, 0.0, 0.0, 0.0, 0.0, 0.0, 0.0, 0.0, 0.0, 0.0, 1.6945969241863348E9, 0.0, 2023-09-13 11:22:04.186
150.0, -39.093201052332056, 187500.0, 187500.0, 187500.0, 187500.0, 187500.0, 187500.0, 187500.0, 0.024, -0.012, 1.006, 192.0, 0.0, 0.0, 0.0, 0.0, 0.0, 0.0, 0.0, 0.0, 0.0, 1.694596924186371E9, 0.0, 2023-09-13 11:22:04.186
151.0, -39.20495977460859, 187500.0, 187500.0, 187500.0, 187500.0, 187500.0, 187500.0, 187500.0, 0.024, -0.012, 1.006, 192.0, 0.0, 0.0, 0.0, 0.0, 0.0, 0.0, 0.0, 0.0, 0.0, 1.6945969241864097E9, 0.0, 2023-09-13 11:22:04.186
152.0, -34.555796927904716, 187500.0, 187500.0, 187500.0, 187500.0, 187500.0, 187500.0, 187500.0, 0.024, -0.012, 1.006, 192.0, 0.0, 0.0, 0.0, 0.0, 0.0, 0.0, 0.0, 0.0, 0.0, 1.6945969241864448E9, 0.0, 2023-09-13 11:22:04.186
153.0, -15.892090307723322, 187500.0, 187500.0, 187500.0, 187500.0, 187500.0, 187500.0, 187500.0, 0.024, -0.012, 1.006, 192.0, 0.0, 0.0, 0.0, 0.0, 0.0, 0.0, 0.0, 0.0, 0.0, 1.6945969241864913E9, 0.0, 2023-09-13 11:22:04.186
154.0, -11.399389672206603, 187500.0, 187500.0, 187500.0, 187500.0, 187500.0, 187500.0, 187500.0, 0.024, -0.012, 1.006, 192.0, 0.0, 0.0, 0.0, 0.0, 0.0, 0.0, 0.0, 0.0, 0.0, 1.6945969241865587E9, 0.0, 2023-09-13 11:22:04.186
155.0, -11.466444905572523, 187500.0, 187500.0, 187500.0, 187500.0, 187500.0, 187500.0, 187500.0, 0.024, -0.012, 1.006, 192.0, 0.0, 0.0, 0.0, 0.0, 0.0, 0.0, 0.0, 0.0, 0.0, 1.6945969241869712E9, 0.0, 2023-09-13 11:22:04.186
156.0, -16.473235663561304, 187500.0, 187500.0, 187500.0, 187500.0, 187500.0, 187500.0, 187500.0, 0.026000000000000002, -0.012, 1.008, 192.0, 0.0, 208.0, 255.0, 160.0, 31.0, 128.0, 0.0, 0.0, 0.0, 1.6945969241870623E9, 0.0, 2023-09-13 11:22:04.187
157.0, -35.15929402819801, 187500.0, 187500.0, 187500.0, 187500.0, 187500.0, 187500.0, 187500.0, 0.026000000000000002, -0.012, 1.008, 192.0, 0.0, 0.0, 0.0, 0.0, 0.0, 0.0, 0.0, 0.0, 0.0, 1.6945969241871245E9, 0.0, 2023-09-13 11:22:04.187
158.0, -39.562587685893504, 187500.0, 187500.0, 187500.0, 187500.0, 187500.0, 187500.0, 187500.0, 0.026000000000000002, -0.012, 1.008, 192.0, 0.0, 0.0, 0.0, 0.0, 0.0, 0.0, 0.0, 0.0, 0.0, 1.69459692418718E9, 0.0, 2023-09-13 11:22:04.187
159.0, -39.517884196982884, 187500.0, 187500.0, 187500.0, 187500.0, 187500.0, 187500.0, 187500.0, 0.026000000000000002, -0.012, 1.008, 192.0, 0.0, 0.0, 0.0, 0.0, 0.0, 0.0, 0.0, 0.0, 0.0, 1.694596924187236E9, 0.0, 2023-09-13 11:22:04.187
160.0, -34.39933471671757, 187500.0, 187500.0, 187500.0, 187500.0, 187500.0, 187500.0, 187500.0, 0.026000000000000002, -0.012, 1.008, 192.0, 0.0, 0.0, 0.0, 0.0, 0.0, 0.0, 0.0, 0.0, 0.0, 1.6945969241872787E9, 0.0, 2023-09-13 11:22:04.187
161.0, -15.690924607625558, 187500.0, 187500.0, 187500.0, 187500.0, 187500.0, 187500.0, 187500.0, 0.026000000000000002, -0.012, 1.008, 192.0, 0.0, 0.0, 0.0, 0.0, 0.0, 0.0, 0.0, 0.0, 0.0, 1.6945969241873257E9, 0.0, 2023-09-13 11:22:04.187
162.0, -11.33233443884068, 187500.0, 187500.0, 187500.0, 187500.0, 187500.0, 187500.0, 187500.0, 0.026000000000000002, -0.012, 1.008, 192.0, 0.0, 0.0, 0.0, 0.0, 0.0, 0.0, 0.0, 0.0, 0.0, 1.6945969241873531E9, 0.0, 2023-09-13 11:22:04.187
163.0, -11.444093161117216, 187500.0, 187500.0, 187500.0, 187500.0, 187500.0, 187500.0, 187500.0, 0.026000000000000002, -0.012, 1.008, 192.0, 0.0, 0.0, 0.0, 0.0, 0.0, 0.0, 0.0, 0.0, 0.0, 1.6945969241873822E9, 0.0, 2023-09-13 11:22:04.187
164.0, -16.42853217465069, 187500.0, 187500.0, 187500.0, 187500.0, 187500.0, 187500.0, 187500.0, 0.026000000000000002, -0.012, 1.008, 192.0, 0.0, 0.0, 0.0, 0.0, 0.0, 0.0, 0.0, 0.0, 0.0, 1.6945969241874113E9, 0.0, 2023-09-13 11:22:04.187
165.0, -35.00283181701086, 187500.0, 187500.0, 187500.0, 187500.0, 187500.0, 187500.0, 187500.0, 0.026000000000000002, -0.012, 1.008, 192.0, 0.0, 0.0, 0.0, 0.0, 0.0, 0.0, 0.0, 0.0, 0.0, 1.6945969241874495E9, 0.0, 2023-09-13 11:22:04.187
166.0, -39.227311519063896, 187500.0, 187500.0, 187500.0, 187500.0, 187500.0, 187500.0, 187500.0, 0.028, -0.016, 1.01, 192.0, 0.0, 224.0, 255.0, 128.0, 31.0, 144.0, 0.0, 0.0, 0.0, 1.6945969241874905E9, 0.0, 2023-09-13 11:22:04.187
167.0, -39.2496632635192, 187500.0, 187500.0, 187500.0, 187500.0, 187500.0, 187500.0, 187500.0, 0.028, -0.016, 1.01, 192.0, 0.0, 0.0, 0.0, 0.0, 0.0, 0.0, 0.0, 0.0, 0.0, 1.694596924187556E9, 0.0, 2023-09-13 11:22:04.187
168.0, -34.66755565018126, 187500.0, 187500.0, 187500.0, 187500.0, 187500.0, 187500.0, 187500.0, 0.028, -0.016, 1.01, 192.0, 0.0, 0.0, 0.0, 0.0, 0.0, 0.0, 0.0, 0.0, 0.0, 1.6945969241876066E9, 0.0, 2023-09-13 11:22:04.187
169.0, -16.115607752276393, 187500.0, 187500.0, 187500.0, 187500.0, 187500.0, 187500.0, 187500.0, 0.028, -0.016, 1.01, 192.0, 0.0, 0.0, 0.0, 0.0, 0.0, 0.0, 0.0, 0.0, 0.0, 1.6945969241876552E9, 0.0, 2023-09-13 11:22:04.187
170.0, -11.48879665002783, 187500.0, 187500.0, 187500.0, 187500.0, 187500.0, 187500.0, 187500.0, 0.028, -0.016, 1.01, 192.0, 0.0, 0.0, 0.0, 0.0, 0.0, 0.0, 0.0, 0.0, 0.0, 1.6945969241879323E9, 0.0, 2023-09-13 11:22:04.187
171.0, -11.64525886121498, 187500.0, 187500.0, 187500.0, 187500.0, 187500.0, 187500.0, 187500.0, 0.028, -0.016, 1.01, 192.0, 0.0, 0.0, 0.0, 0.0, 0.0, 0.0, 0.0, 0.0, 0.0, 1.694596924187961E9, 0.0, 2023-09-13 11:22:04.187
172.0, -16.696753108114375, 187500.0, 187500.0, 187500.0, 187500.0, 187500.0, 187500.0, 187500.0, 0.028, -0.016, 1.01, 192.0, 0.0, 0.0, 0.0, 0.0, 0.0, 0.0, 0.0, 0.0, 0.0, 1.694596924187987E9, 0.0, 2023-09-13 11:22:04.187
173.0, -35.025183561466164, 187500.0, 187500.0, 187500.0, 187500.0, 187500.0, 187500.0, 187500.0, 0.028, -0.016, 1.01, 192.0, 0.0, 0.0, 0.0, 0.0, 0.0, 0.0, 0.0, 0.0, 0.0, 1.694596924188016E9, 0.0, 2023-09-13 11:22:04.188
174.0, -39.20495977460859, 187500.0, 187500.0, 187500.0, 187500.0, 187500.0, 187500.0, 187500.0, 0.028, -0.016, 1.01, 192.0, 0.0, 0.0, 0.0, 0.0, 0.0, 0.0, 0.0, 0.0, 0.0, 1.6945969241880465E9, 0.0, 2023-09-13 11:22:04.188
175.0, -39.36142198579574, 187500.0, 187500.0, 187500.0, 187500.0, 187500.0, 187500.0, 187500.0, 0.028, -0.016, 1.01, 192.0, 0.0, 0.0, 0.0, 0.0, 0.0, 0.0, 0.0, 0.0, 0.0, 1.6945969241880798E9, 0.0, 2023-09-13 11:22:04.188
176.0, -34.62285216127064, 187500.0, 187500.0, 187500.0, 187500.0, 187500.0, 187500.0, 187500.0, 0.03, -0.014, 1.008, 192.0, 0.0, 240.0, 255.0, 144.0, 31.0, 128.0, 0.0, 0.0, 0.0, 1.69459692418811E9, 0.0, 2023-09-13 11:22:04.188
177.0, -16.115607752276393, 187500.0, 187500.0, 187500.0, 187500.0, 187500.0, 187500.0, 187500.0, 0.03, -0.014, 1.008, 192.0, 0.0, 0.0, 0.0, 0.0, 0.0, 0.0, 0.0, 0.0, 0.0, 1.694596924188142E9, 0.0, 2023-09-13 11:22:04.188
178.0, -11.757017583491516, 187500.0, 187500.0, 187500.0, 187500.0, 187500.0, 187500.0, 187500.0, 0.03, -0.014, 1.008, 192.0, 0.0, 0.0, 0.0, 0.0, 0.0, 0.0, 0.0, 0.0, 0.0, 1.694596924188169E9, 0.0, 2023-09-13 11:22:04.188
179.0, -11.33233443884068, 187500.0, 187500.0, 187500.0, 187500.0, 187500.0, 187500.0, 187500.0, 0.03, -0.014, 1.008, 192.0, 0.0, 0.0, 0.0, 0.0, 0.0, 0.0, 0.0, 0.0, 0.0, 1.6945969241881945E9, 0.0, 2023-09-13 11:22:04.188
180.0, -16.20501473009762, 187500.0, 187500.0, 187500.0, 187500.0, 187500.0, 187500.0, 187500.0, 0.03, -0.014, 1.008, 192.0, 0.0, 0.0, 0.0, 0.0, 0.0, 0.0, 0.0, 0.0, 0.0, 1.694596924188224E9, 0.0, 2023-09-13 11:22:04.188
181.0, -35.06988705037678, 187500.0, 187500.0, 187500.0, 187500.0, 187500.0, 187500.0, 187500.0, 0.03, -0.014, 1.008, 192.0, 0.0, 0.0, 0.0, 0.0, 0.0, 0.0, 0.0, 0.0, 0.0, 1.6945969241882536E9, 0.0, 2023-09-13 11:22:04.188
182.0, -39.27201500797451, 187500.0, 187500.0, 187500.0, 187500.0, 187500.0, 187500.0, 187500.0, 0.03, -0.014, 1.008, 192.0, 0.0, 0.0, 0.0, 0.0, 0.0, 0.0, 0.0, 0.0, 0.0, 1.6945969241882844E9, 0.0, 2023-09-13 11:22:04.188
183.0, -39.40612547470635, 187500.0, 187500.0, 187500.0, 187500.0, 187500.0, 187500.0, 187500.0, 0.03, -0.014, 1.008, 192.0, 0.0, 0.0, 0.0, 0.0, 0.0, 0.0, 0.0, 0.0, 0.0, 1.6945969241883156E9, 0.0, 2023-09-13 11:22:04.188
184.0, -34.354631227806955, 187500.0, 187500.0, 187500.0, 187500.0, 187500.0, 187500.0, 187500.0, 0.03, -0.014, 1.008, 192.0, 0.0, 0.0, 0.0, 0.0, 0.0, 0.0, 0.0, 0.0, 0.0, 1.6945969241883476E9, 0.0, 2023-09-13 11:22:04.188
185.0, -15.668572863170251, 187500.0, 187500.0, 187500.0, 187500.0, 187500.0, 187500.0, 187500.0, 0.03, -0.014, 1.008, 192.0, 0.0, 0.0, 0.0, 0.0, 0.0, 0.0, 0.0, 0.0, 0.0, 1.6945969241883812E9, 0.0, 2023-09-13 11:22:04.188
186.0, -11.377037927751294, 187500.0, 187500.0, 187500.0, 187500.0, 187500.0, 187500.0, 187500.0, 0.028, -0.016, 1.004, 192.0, 0.0, 224.0, 255.0, 128.0, 31.0, 96.0, 0.0, 0.0, 0.0, 1.694596924188661E9, 0.0, 2023-09-13 11:22:04.188
187.0, -11.309982694385374, 187500.0, 187500.0, 187500.0, 187500.0, 187500.0, 187500.0, 187500.0, 0.028, -0.016, 1.004, 192.0, 0.0, 0.0, 0.0, 0.0, 0.0, 0.0, 0.0, 0.0, 0.0, 1.69459692418874E9, 0.0, 2023-09-13 11:22:04.188
188.0, -16.67440136365907, 187500.0, 187500.0, 187500.0, 187500.0, 187500.0, 187500.0, 187500.0, 0.028, -0.016, 1.004, 192.0, 0.0, 0.0, 0.0, 0.0, 0.0, 0.0, 0.0, 0.0, 0.0, 1.6945969241888084E9, 0.0, 2023-09-13 11:22:04.188
189.0, -34.93577658364494, 187500.0, 187500.0, 187500.0, 187500.0, 187500.0, 187500.0, 187500.0, 0.028, -0.016, 1.004, 192.0, 0.0, 0.0, 0.0, 0.0, 0.0, 0.0, 0.0, 0.0, 0.0, 1.6945969241888762E9, 0.0, 2023-09-13 11:22:04.188
190.0, -39.42847721916166, 187500.0, 187500.0, 187500.0, 187500.0, 187500.0, 187500.0, 187500.0, 0.028, -0.016, 1.004, 192.0, 0.0, 0.0, 0.0, 0.0, 0.0, 0.0, 0.0, 0.0, 0.0, 1.6945969241889408E9, 0.0, 2023-09-13 11:22:04.188
191.0, -39.58493943034881, 187500.0, 187500.0, 187500.0, 187500.0, 187500.0, 187500.0, 187500.0, 0.028, -0.016, 1.004, 192.0, 0.0, 0.0, 0.0, 0.0, 0.0, 0.0, 0.0, 0.0, 0.0, 1.6945969241889937E9, 0.0, 2023-09-13 11:22:04.188
192.0, -34.62285216127064, 187500.0, 187500.0, 187500.0, 187500.0, 187500.0, 187500.0, 187500.0, 0.028, -0.016, 1.004, 192.0, 0.0, 0.0, 0.0, 0.0, 0.0, 0.0, 0.0, 0.0, 0.0, 1.6945969241890442E9, 0.0, 2023-09-13 11:22:04.189
193.0, -15.936793796633935, 187500.0, 187500.0, 187500.0, 187500.0, 187500.0, 187500.0, 187500.0, 0.028, -0.016, 1.004, 192.0, 0.0, 0.0, 0.0, 0.0, 0.0, 0.0, 0.0, 0.0, 0.0, 1.694596924189098E9, 0.0, 2023-09-13 11:22:04.189
194.0, -11.42174141666191, 187500.0, 187500.0, 187500.0, 187500.0, 187500.0, 187500.0, 187500.0, 0.028, -0.016, 1.004, 192.0, 0.0, 0.0, 0.0, 0.0, 0.0, 0.0, 0.0, 0.0, 0.0, 1.6945969241891448E9, 0.0, 2023-09-13 11:22:04.189
195.0, -11.309982694385374, 187500.0, 187500.0, 187500.0, 187500.0, 187500.0, 187500.0, 187500.0, 0.028, -0.016, 1.004, 192.0, 0.0, 0.0, 0.0, 0.0, 0.0, 0.0, 0.0, 0.0, 0.0, 1.694596924189195E9, 0.0, 2023-09-13 11:22:04.189
196.0, -16.540290896927225, 187500.0, 187500.0, 187500.0, 187500.0, 187500.0, 187500.0, 187500.0, 0.03, -0.014, 1.008, 192.0, 0.0, 240.0, 255.0, 144.0, 31.0, 128.0, 0.0, 0.0, 0.0, 1.6945969241892474E9, 0.0, 2023-09-13 11:22:04.189
197.0, -35.22634926156393, 187500.0, 187500.0, 187500.0, 187500.0, 187500.0, 187500.0, 187500.0, 0.03, -0.014, 1.008, 192.0, 0.0, 0.0, 0.0, 0.0, 0.0, 0.0, 0.0, 0.0, 0.0, 1.694596924189302E9, 0.0, 2023-09-13 11:22:04.189
198.0, -39.38377373025104, 187500.0, 187500.0, 187500.0, 187500.0, 187500.0, 187500.0, 187500.0, 0.03, -0.014, 1.008, 192.0, 0.0, 0.0, 0.0, 0.0, 0.0, 0.0, 0.0, 0.0, 0.0, 1.694596924189351E9, 0.0, 2023-09-13 11:22:04.189
199.0, -39.227311519063896, 187500.0, 187500.0, 187500.0, 187500.0, 187500.0, 187500.0, 187500.0, 0.03, -0.014, 1.008, 192.0, 0.0, 0.0, 0.0, 0.0, 0.0, 0.0, 0.0, 0.0, 0.0, 1.6945969241894016E9, 0.0, 2023-09-13 11:22:04.189
200.0, -34.57814867236002, 187500.0, 187500.0, 187500.0, 187500.0, 187500.0, 187500.0, 187500.0, 0.03, -0.014, 1.008, 192.0, 0.0, 0.0, 0.0, 0.0, 0.0, 0.0, 0.0, 0.0, 0.0, 1.6945969241894612E9, 0.0, 2023-09-13 11:22:04.189
201.0, -15.646221118714944, 187500.0, 187500.0, 187500.0, 187500.0, 187500.0, 187500.0, 187500.0, 0.03, -0.014, 1.008, 192.0, 0.0, 0.0, 0.0, 0.0, 0.0, 0.0, 0.0, 0.0, 0.0, 1.6945969241897614E9, 0.0, 2023-09-13 11:22:04.189
202.0, -11.10881699428761, 187500.0, 187500.0, 187500.0, 187500.0, 187500.0, 187500.0, 187500.0, 0.03, -0.014, 1.008, 192.0, 0.0, 0.0, 0.0, 0.0, 0.0, 0.0, 0.0, 0.0, 0.0, 1.694596924189819E9, 0.0, 2023-09-13 11:22:04.189
203.0, -11.220575716564145, 187500.0, 187500.0, 187500.0, 187500.0, 187500.0, 187500.0, 187500.0, 0.03, -0.014, 1.008, 192.0, 0.0, 0.0, 0.0, 0.0, 0.0, 0.0, 0.0, 0.0, 0.0, 1.6945969241898687E9, 0.0, 2023-09-13 11:22:04.189
204.0, -16.450883919105998, 187500.0, 187500.0, 187500.0, 187500.0, 187500.0, 187500.0, 187500.0, 0.03, -0.014, 1.008, 192.0, 0.0, 0.0, 0.0, 0.0, 0.0, 0.0, 0.0, 0.0, 0.0, 1.6945969241899295E9, 0.0, 2023-09-13 11:22:04.189
205.0, -35.22634926156393, 187500.0, 187500.0, 187500.0, 187500.0, 187500.0, 187500.0, 187500.0, 0.03, -0.014, 1.008, 192.0, 0.0, 0.0, 0.0, 0.0, 0.0, 0.0, 0.0, 0.0, 0.0, 1.6945969241899927E9, 0.0, 2023-09-13 11:22:04.189
206.0, -39.42847721916166, 187500.0, 187500.0, 187500.0, 187500.0, 187500.0, 187500.0, 187500.0, 0.028, -0.014, 1.006, 192.0, 0.0, 224.0, 255.0, 144.0, 31.0, 112.0, 0.0, 0.0, 0.0, 1.6945969241900606E9, 0.0, 2023-09-13 11:22:04.190
207.0, -39.2496632635192, 187500.0, 187500.0, 187500.0, 187500.0, 187500.0, 187500.0, 187500.0, 0.028, -0.014, 1.006, 192.0, 0.0, 0.0, 0.0, 0.0, 0.0, 0.0, 0.0, 0.0, 0.0, 1.6945969241901307E9, 0.0, 2023-09-13 11:22:04.190
208.0, -34.37698297226226, 187500.0, 187500.0, 187500.0, 187500.0, 187500.0, 187500.0, 187500.0, 0.028, -0.014, 1.006, 192.0, 0.0, 0.0, 0.0, 0.0, 0.0, 0.0, 0.0, 0.0, 0.0, 1.694596924190178E9, 0.0, 2023-09-13 11:22:04.190
209.0, -15.892090307723322, 187500.0, 187500.0, 187500.0, 187500.0, 187500.0, 187500.0, 187500.0, 0.028, -0.014, 1.006, 192.0, 0.0, 0.0, 0.0, 0.0, 0.0, 0.0, 0.0, 0.0, 0.0, 1.6945969241902268E9, 0.0, 2023-09-13 11:22:04.190
210.0, -11.309982694385374, 187500.0, 187500.0, 187500.0, 187500.0, 187500.0, 187500.0, 187500.0, 0.028, -0.014, 1.006, 192.0, 0.0, 0.0, 0.0, 0.0, 0.0, 0.0, 0.0, 0.0, 0.0, 1.6945969241902795E9, 0.0, 2023-09-13 11:22:04.190
211.0, -11.33233443884068, 187500.0, 187500.0, 187500.0, 187500.0, 187500.0, 187500.0, 187500.0, 0.028, -0.014, 1.006, 192.0, 0.0, 0.0, 0.0, 0.0, 0.0, 0.0, 0.0, 0.0, 0.0, 1.694596924190327E9, 0.0, 2023-09-13 11:22:04.190
212.0, -16.540290896927225, 187500.0, 187500.0, 187500.0, 187500.0, 187500.0, 187500.0, 187500.0, 0.028, -0.014, 1.006, 192.0, 0.0, 0.0, 0.0, 0.0, 0.0, 0.0, 0.0, 0.0, 0.0, 1.6945969241903718E9, 0.0, 2023-09-13 11:22:04.190
213.0, -35.18164577265332, 187500.0, 187500.0, 187500.0, 187500.0, 187500.0, 187500.0, 187500.0, 0.028, -0.014, 1.006, 192.0, 0.0, 0.0, 0.0, 0.0, 0.0, 0.0, 0.0, 0.0, 0.0, 1.6945969241904168E9, 0.0, 2023-09-13 11:22:04.190
214.0, -39.31671849688512, 187500.0, 187500.0, 187500.0, 187500.0, 187500.0, 187500.0, 187500.0, 0.028, -0.014, 1.006, 192.0, 0.0, 0.0, 0.0, 0.0, 0.0, 0.0, 0.0, 0.0, 0.0, 1.6945969241904688E9, 0.0, 2023-09-13 11:22:04.190
215.0, -39.20495977460859, 187500.0, 187500.0, 187500.0, 187500.0, 187500.0, 187500.0, 187500.0, 0.028, -0.014, 1.006, 192.0, 0.0, 0.0, 0.0, 0.0, 0.0, 0.0, 0.0, 0.0, 0.0, 1.6945969241905112E9, 0.0, 2023-09-13 11:22:04.190
216.0, -34.13111378325389, 187500.0, 187500.0, 187500.0, 187500.0, 187500.0, 187500.0, 187500.0, 0.028, -0.016, 1.008, 192.0, 0.0, 224.0, 255.0, 128.0, 31.0, 128.0, 0.0, 0.0, 0.0, 1.6945969241907437E9, 0.0, 2023-09-13 11:22:04.190
217.0, -15.869738563268015, 187500.0, 187500.0, 187500.0, 187500.0, 187500.0, 187500.0, 187500.0, 0.028, -0.016, 1.008, 192.0, 0.0, 0.0, 0.0, 0.0, 0.0, 0.0, 0.0, 0.0, 0.0, 1.6945969241907983E9, 0.0, 2023-09-13 11:22:04.190
218.0, -11.444093161117216, 187500.0, 187500.0, 187500.0, 187500.0, 187500.0, 187500.0, 187500.0, 0.028, -0.016, 1.008, 192.0, 0.0, 0.0, 0.0, 0.0, 0.0, 0.0, 0.0, 0.0, 0.0, 1.6945969241908476E9, 0.0, 2023-09-13 11:22:04.190
219.0, -11.555851883393752, 187500.0, 187500.0, 187500.0, 187500.0, 187500.0, 187500.0, 187500.0, 0.028, -0.016, 1.008, 192.0, 0.0, 0.0, 0.0, 0.0, 0.0, 0.0, 0.0, 0.0, 0.0, 1.6945969241908991E9, 0.0, 2023-09-13 11:22:04.190
220.0, -16.07090426336578, 187500.0, 187500.0, 187500.0, 187500.0, 187500.0, 187500.0, 187500.0, 0.028, -0.016, 1.008, 192.0, 0.0, 0.0, 0.0, 0.0, 0.0, 0.0, 0.0, 0.0, 0.0, 1.6945969241909528E9, 0.0, 2023-09-13 11:22:04.190
221.0, -35.06988705037678, 187500.0, 187500.0, 187500.0, 187500.0, 187500.0, 187500.0, 187500.0, 0.028, -0.016, 1.008, 192.0, 0.0, 0.0, 0.0, 0.0, 0.0, 0.0, 0.0, 0.0, 0.0, 1.6945969241910005E9, 0.0, 2023-09-13 11:22:04.191
222.0, -39.696698152625345, 187500.0, 187500.0, 187500.0, 187500.0, 187500.0, 187500.0, 187500.0, 0.028, -0.016, 1.008, 192.0, 0.0, 0.0, 0.0, 0.0, 0.0, 0.0, 0.0, 0.0, 0.0, 1.6945969241910477E9, 0.0, 2023-09-13 11:22:04.191
223.0, -39.38377373025104, 187500.0, 187500.0, 187500.0, 187500.0, 187500.0, 187500.0, 187500.0, 0.028, -0.016, 1.008, 192.0, 0.0, 0.0, 0.0, 0.0, 0.0, 0.0, 0.0, 0.0, 0.0, 1.6945969241910949E9, 0.0, 2023-09-13 11:22:04.191
224.0, -34.555796927904716, 187500.0, 187500.0, 187500.0, 187500.0, 187500.0, 187500.0, 187500.0, 0.028, -0.016, 1.008, 192.0, 0.0, 0.0, 0.0, 0.0, 0.0, 0.0, 0.0, 0.0, 0.0, 1.6945969241911416E9, 0.0, 2023-09-13 11:22:04.191
225.0, -15.780331585446786, 187500.0, 187500.0, 187500.0, 187500.0, 187500.0, 187500.0, 187500.0, 0.028, -0.016, 1.008, 192.0, 0.0, 0.0, 0.0, 0.0, 0.0, 0.0, 0.0, 0.0, 0.0, 1.6945969241911972E9, 0.0, 2023-09-13 11:22:04.191
226.0, -11.667610605670287, 187500.0, 187500.0, 187500.0, 187500.0, 187500.0, 187500.0, 187500.0, 0.026000000000000002, -0.016, 1.006, 192.0, 0.0, 208.0, 255.0, 128.0, 31.0, 112.0, 0.0, 0.0, 0.0, 1.6945969241912985E9, 0.0, 2023-09-13 11:22:04.191
227.0, -11.220575716564145, 187500.0, 187500.0, 187500.0, 187500.0, 187500.0, 187500.0, 187500.0, 0.026000000000000002, -0.016, 1.006, 192.0, 0.0, 0.0, 0.0, 0.0, 0.0, 0.0, 0.0, 0.0, 0.0, 1.6945969241913917E9, 0.0, 2023-09-13 11:22:04.191
228.0, -16.294421707918847, 187500.0, 187500.0, 187500.0, 187500.0, 187500.0, 187500.0, 187500.0, 0.026000000000000002, -0.016, 1.006, 192.0, 0.0, 0.0, 0.0, 0.0, 0.0, 0.0, 0.0, 0.0, 0.0, 1.6945969241914923E9, 0.0, 2023-09-13 11:22:04.191
229.0, -35.025183561466164, 187500.0, 187500.0, 187500.0, 187500.0, 187500.0, 187500.0, 187500.0, 0.026000000000000002, -0.016, 1.006, 192.0, 0.0, 0.0, 0.0, 0.0, 0.0, 0.0, 0.0, 0.0, 0.0, 1.6945969241915421E9, 0.0, 2023-09-13 11:22:04.191
230.0, -39.294366752429816, 187500.0, 187500.0, 187500.0, 187500.0, 187500.0, 187500.0, 187500.0, 0.026000000000000002, -0.016, 1.006, 192.0, 0.0, 0.0, 0.0, 0.0, 0.0, 0.0, 0.0, 0.0, 0.0, 1.6945969241915965E9, 0.0, 2023-09-13 11:22:04.191
231.0, -39.048497563421435, 187500.0, 187500.0, 187500.0, 187500.0, 187500.0, 187500.0, 187500.0, 0.026000000000000002, -0.016, 1.006, 192.0, 0.0, 0.0, 0.0, 0.0, 0.0, 0.0, 0.0, 0.0, 0.0, 1.6945969241916482E9, 0.0, 2023-09-13 11:22:04.191
232.0, -34.37698297226226, 187500.0, 187500.0, 187500.0, 187500.0, 187500.0, 187500.0, 187500.0, 0.026000000000000002, -0.016, 1.006, 192.0, 0.0, 0.0, 0.0, 0.0, 0.0, 0.0, 0.0, 0.0, 0.0, 1.6945969241919253E9, 0.0, 2023-09-13 11:22:04.191
233.0, -15.668572863170251, 187500.0, 187500.0, 187500.0, 187500.0, 187500.0, 187500.0, 187500.0, 0.026000000000000002, -0.016, 1.006, 192.0, 0.0, 0.0, 0.0, 0.0, 0.0, 0.0, 0.0, 0.0, 0.0, 1.6945969241919792E9, 0.0, 2023-09-13 11:22:04.191
234.0, -11.64525886121498, 187500.0, 187500.0, 187500.0, 187500.0, 187500.0, 187500.0, 187500.0, 0.026000000000000002, -0.016, 1.006, 192.0, 0.0, 0.0, 0.0, 0.0, 0.0, 0.0, 0.0, 0.0, 0.0, 1.6945969241920335E9, 0.0, 2023-09-13 11:22:04.192
235.0, -11.757017583491516, 187500.0, 187500.0, 187500.0, 187500.0, 187500.0, 187500.0, 187500.0, 0.026000000000000002, -0.016, 1.006, 192.0, 0.0, 0.0, 0.0, 0.0, 0.0, 0.0, 0.0, 0.0, 0.0, 1.694596924192088E9, 0.0, 2023-09-13 11:22:04.192
236.0, -16.406180430195384, 187500.0, 187500.0, 187500.0, 187500.0, 187500.0, 187500.0, 187500.0, 0.03, -0.02, 1.006, 192.0, 0.0, 240.0, 255.0, 96.0, 31.0, 112.0, 0.0, 0.0, 0.0, 1.6945969241921465E9, 0.0, 2023-09-13 11:22:04.192
237.0, -35.15929402819801, 187500.0, 187500.0, 187500.0, 187500.0, 187500.0, 187500.0, 187500.0, 0.03, -0.02, 1.006, 192.0, 0.0, 0.0, 0.0, 0.0, 0.0, 0.0, 0.0, 0.0, 0.0, 1.6945969241922028E9, 0.0, 2023-09-13 11:22:04.192
238.0, -39.227311519063896, 187500.0, 187500.0, 187500.0, 187500.0, 187500.0, 187500.0, 187500.0, 0.03, -0.02, 1.006, 192.0, 0.0, 0.0, 0.0, 0.0, 0.0, 0.0, 0.0, 0.0, 0.0, 1.6945969241922517E9, 0.0, 2023-09-13 11:22:04.192
239.0, -39.8755121082678, 187500.0, 187500.0, 187500.0, 187500.0, 187500.0, 187500.0, 187500.0, 0.03, -0.02, 1.006, 192.0, 0.0, 0.0, 0.0, 0.0, 0.0, 0.0, 0.0, 0.0, 0.0, 1.6945969241922991E9, 0.0, 2023-09-13 11:22:04.192
240.0, -34.77931437245779, 187500.0, 187500.0, 187500.0, 187500.0, 187500.0, 187500.0, 187500.0, 0.03, -0.02, 1.006, 192.0, 0.0, 0.0, 0.0, 0.0, 0.0, 0.0, 0.0, 0.0, 0.0, 1.694596924192346E9, 0.0, 2023-09-13 11:22:04.192
241.0, -15.959145541089242, 187500.0, 187500.0, 187500.0, 187500.0, 187500.0, 187500.0, 187500.0, 0.03, -0.02, 1.006, 192.0, 0.0, 0.0, 0.0, 0.0, 0.0, 0.0, 0.0, 0.0, 0.0, 1.6945969241923895E9, 0.0, 2023-09-13 11:22:04.192
242.0, -11.555851883393752, 187500.0, 187500.0, 187500.0, 187500.0, 187500.0, 187500.0, 187500.0, 0.03, -0.02, 1.006, 192.0, 0.0, 0.0, 0.0, 0.0, 0.0, 0.0, 0.0, 0.0, 0.0, 1.6945969241924381E9, 0.0, 2023-09-13 11:22:04.192
243.0, -11.757017583491516, 187500.0, 187500.0, 187500.0, 187500.0, 187500.0, 187500.0, 187500.0, 0.03, -0.02, 1.006, 192.0, 0.0, 0.0, 0.0, 0.0, 0.0, 0.0, 0.0, 0.0, 0.0, 1.6945969246644E9, 0.0, 2023-09-13 11:22:04.664
244.0, -16.629697874748455, 187500.0, 187500.0, 187500.0, 187500.0, 187500.0, 187500.0, 187500.0, 0.03, -0.02, 1.006, 192.0, 0.0, 0.0, 0.0, 0.0, 0.0, 0.0, 0.0, 0.0, 0.0, 1.6945969246646423E9, 0.0, 2023-09-13 11:22:04.664
245.0, -35.136942283742705, 187500.0, 187500.0, 187500.0, 187500.0, 187500.0, 187500.0, 187500.0, 0.03, -0.02, 1.006, 192.0, 0.0, 0.0, 0.0, 0.0, 0.0, 0.0, 0.0, 0.0, 0.0, 1.694596924664821E9, 0.0, 2023-09-13 11:22:04.664
246.0, -39.31671849688512, 187500.0, 187500.0, 187500.0, 187500.0, 187500.0, 187500.0, 187500.0, 0.026000000000000002, -0.012, 1.004, 192.0, 0.0, 208.0, 255.0, 160.0, 31.0, 96.0, 0.0, 0.0, 0.0, 1.694596924664978E9, 0.0, 2023-09-13 11:22:04.664
247.0, -39.20495977460859, 187500.0, 187500.0, 187500.0, 187500.0, 187500.0, 187500.0, 187500.0, 0.026000000000000002, -0.012, 1.004, 192.0, 0.0, 0.0, 0.0, 0.0, 0.0, 0.0, 0.0, 0.0, 0.0, 1.6945969246652443E9, 0.0, 2023-09-13 11:22:04.665
248.0, -34.8016661169131, 187500.0, 187500.0, 187500.0, 187500.0, 187500.0, 187500.0, 187500.0, 0.026000000000000002, -0.012, 1.004, 192.0, 0.0, 0.0, 0.0, 0.0, 0.0, 0.0, 0.0, 0.0, 0.0, 1.694596924665344E9, 0.0, 2023-09-13 11:22:04.665
249.0, -16.1379594967317, 187500.0, 187500.0, 187500.0, 187500.0, 187500.0, 187500.0, 187500.0, 0.026000000000000002, -0.012, 1.004, 192.0, 0.0, 0.0, 0.0, 0.0, 0.0, 0.0, 0.0, 0.0, 0.0, 1.694596924665395E9, 0.0, 2023-09-13 11:22:04.665
250.0, -11.33233443884068, 187500.0, 187500.0, 187500.0, 187500.0, 187500.0, 187500.0, 187500.0, 0.026000000000000002, -0.012, 1.004, 192.0, 0.0, 0.0, 0.0, 0.0, 0.0, 0.0, 0.0, 0.0, 0.0, 1.6945969246654813E9, 0.0, 2023-09-13 11:22:04.665
251.0, -11.309982694385374, 187500.0, 187500.0, 187500.0, 187500.0, 187500.0, 187500.0, 187500.0, 0.026000000000000002, -0.012, 1.004, 192.0, 0.0, 0.0, 0.0, 0.0, 0.0, 0.0, 0.0, 0.0, 0.0, 1.6945969246656153E9, 0.0, 2023-09-13 11:22:04.665
252.0, -16.540290896927225, 187500.0, 187500.0, 187500.0, 187500.0, 187500.0, 187500.0, 187500.0, 0.026000000000000002, -0.012, 1.004, 192.0, 0.0, 0.0, 0.0, 0.0, 0.0, 0.0, 0.0, 0.0, 0.0, 1.6945969246656914E9, 0.0, 2023-09-13 11:22:04.665
253.0, -34.958128328100244, 187500.0, 187500.0, 187500.0, 187500.0, 187500.0, 187500.0, 187500.0, 0.026000000000000002, -0.012, 1.004, 192.0, 0.0, 0.0, 0.0, 0.0, 0.0, 0.0, 0.0, 0.0, 0.0, 1.6945969246657503E9, 0.0, 2023-09-13 11:22:04.665
254.0, -39.49553245252758, 187500.0, 187500.0, 187500.0, 187500.0, 187500.0, 187500.0, 187500.0, 0.026000000000000002, -0.012, 1.004, 192.0, 0.0, 0.0, 0.0, 0.0, 0.0, 0.0, 0.0, 0.0, 0.0, 1.6945969246657963E9, 0.0, 2023-09-13 11:22:04.665
255.0, -39.40612547470635, 187500.0, 187500.0, 187500.0, 187500.0, 187500.0, 187500.0, 187500.0, 0.026000000000000002, -0.012, 1.004, 192.0, 0.0, 0.0, 0.0, 0.0, 0.0, 0.0, 0.0, 0.0, 0.0, 1.6945969246658435E9, 0.0, 2023-09-13 11:22:04.665
0.0, -34.53344518344941, 187500.0, 187500.0, 187500.0, 187500.0, 187500.0, 187500.0, 187500.0, 0.022, -0.012, 1.008, 192.0, 0.0, 176.0, 255.0, 160.0, 31.0, 128.0, 0.0, 0.0, 0.0, 1.6945969246658945E9, 0.0, 2023-09-13 11:22:04.665
1.0, -15.601517629804329, 187500.0, 187500.0, 187500.0, 187500.0, 187500.0, 187500.0, 187500.0, 0.022, -0.012, 1.008, 192.0, 0.0, 0.0, 0.0, 0.0, 0.0, 0.0, 0.0, 0.0, 0.0, 1.6945969246659448E9, 0.0, 2023-09-13 11:22:04.665
2.0, -11.10881699428761, 187500.0, 187500.0, 187500.0, 187500.0, 187500.0, 187500.0, 187500.0, 0.022, -0.012, 1.008, 192.0, 0.0, 0.0, 0.0, 0.0, 0.0, 0.0, 0.0, 0.0, 0.0, 1.6945969246659825E9, 0.0, 2023-09-13 11:22:04.665
3.0, -11.399389672206603, 187500.0, 187500.0, 187500.0, 187500.0, 187500.0, 187500.0, 187500.0, 0.022, -0.012, 1.008, 192.0, 0.0, 0.0, 0.0, 0.0, 0.0, 0.0, 0.0, 0.0, 0.0, 1.6945969246660087E9, 0.0, 2023-09-13 11:22:04.666
4.0, -16.562642641382535, 187500.0, 187500.0, 187500.0, 187500.0, 187500.0, 187500.0, 187500.0, 0.022, -0.012, 1.008, 192.0, 0.0, 0.0, 0.0, 0.0, 0.0, 0.0, 0.0, 0.0, 0.0, 1.6945969246660335E9, 0.0, 2023-09-13 11:22:04.666
5.0, -34.8016661169131, 187500.0, 187500.0, 187500.0, 187500.0, 187500.0, 187500.0, 187500.0, 0.022, -0.012, 1.008, 192.0, 0.0, 0.0, 0.0, 0.0, 0.0, 0.0, 0.0, 0.0, 0.0, 1.694596924666058E9, 0.0, 2023-09-13 11:22:04.666
6.0, -39.13790454124267, 187500.0, 187500.0, 187500.0, 187500.0, 187500.0, 187500.0, 187500.0, 0.022, -0.012, 1.008, 192.0, 0.0, 0.0, 0.0, 0.0, 0.0, 0.0, 0.0, 0.0, 0.0, 1.6945969246661608E9, 0.0, 2023-09-13 11:22:04.666
7.0, -39.58493943034881, 187500.0, 187500.0, 187500.0, 187500.0, 187500.0, 187500.0, 187500.0, 0.022, -0.012, 1.008, 192.0, 0.0, 0.0, 0.0, 0.0, 0.0, 0.0, 0.0, 0.0, 0.0, 1.6945969246661868E9, 0.0, 2023-09-13 11:22:04.666
8.0, -34.600500416815336, 187500.0, 187500.0, 187500.0, 187500.0, 187500.0, 187500.0, 187500.0, 0.022, -0.012, 1.008, 192.0, 0.0, 0.0, 0.0, 0.0, 0.0, 0.0, 0.0, 0.0, 0.0, 1.6945969246662111E9, 0.0, 2023-09-13 11:22:04.666
9.0, -15.936793796633935, 187500.0, 187500.0, 187500.0, 187500.0, 187500.0, 187500.0, 187500.0, 0.022, -0.012, 1.008, 192.0, 0.0, 0.0, 0.0, 0.0, 0.0, 0.0, 0.0, 0.0, 0.0, 1.6945969246662364E9, 0.0, 2023-09-13 11:22:04.666
10.0, -11.444093161117216, 187500.0, 187500.0, 187500.0, 187500.0, 187500.0, 187500.0, 187500.0, 0.028, -0.014, 1.006, 192.0, 0.0, 224.0, 255.0, 144.0, 31.0, 112.0, 0.0, 0.0, 0.0, 1.6945969246662607E9, 0.0, 2023-09-13 11:22:04.666
11.0, -11.242927461019452, 187500.0, 187500.0, 187500.0, 187500.0, 187500.0, 187500.0, 187500.0, 0.028, -0.014, 1.006, 192.0, 0.0, 0.0, 0.0, 0.0, 0.0, 0.0, 0.0, 0.0, 0.0, 1.6945969246662867E9, 0.0, 2023-09-13 11:22:04.666
12.0, -16.339125196829464, 187500.0, 187500.0, 187500.0, 187500.0, 187500.0, 187500.0, 187500.0, 0.028, -0.014, 1.006, 192.0, 0.0, 0.0, 0.0, 0.0, 0.0, 0.0, 0.0, 0.0, 0.0, 1.6945969246663127E9, 0.0, 2023-09-13 11:22:04.666
13.0, -35.1145905392874, 187500.0, 187500.0, 187500.0, 187500.0, 187500.0, 187500.0, 187500.0, 0.028, -0.014, 1.006, 192.0, 0.0, 0.0, 0.0, 0.0, 0.0, 0.0, 0.0, 0.0, 0.0, 1.6945969246663384E9, 0.0, 2023-09-13 11:22:04.666
14.0, -39.38377373025104, 187500.0, 187500.0, 187500.0, 187500.0, 187500.0, 187500.0, 187500.0, 0.028, -0.014, 1.006, 192.0, 0.0, 0.0, 0.0, 0.0, 0.0, 0.0, 0.0, 0.0, 0.0, 1.6945969246663628E9, 0.0, 2023-09-13 11:22:04.666
15.0, -39.2496632635192, 187500.0, 187500.0, 187500.0, 187500.0, 187500.0, 187500.0, 187500.0, 0.028, -0.014, 1.006, 192.0, 0.0, 0.0, 0.0, 0.0, 0.0, 0.0, 0.0, 0.0, 0.0, 1.6945969246663876E9, 0.0, 2023-09-13 11:22:04.666
16.0, -34.84636960582371, 187500.0, 187500.0, 187500.0, 187500.0, 187500.0, 187500.0, 187500.0, 0.028, -0.014, 1.006, 192.0, 0.0, 0.0, 0.0, 0.0, 0.0, 0.0, 0.0, 0.0, 0.0, 1.694596924666412E9, 0.0, 2023-09-13 11:22:04.666
17.0, -15.892090307723322, 187500.0, 187500.0, 187500.0, 187500.0, 187500.0, 187500.0, 187500.0, 0.028, -0.014, 1.006, 192.0, 0.0, 0.0, 0.0, 0.0, 0.0, 0.0, 0.0, 0.0, 0.0, 1.6945969246664371E9, 0.0, 2023-09-13 11:22:04.666
18.0, -11.086465249832303, 187500.0, 187500.0, 187500.0, 187500.0, 187500.0, 187500.0, 187500.0, 0.028, -0.014, 1.006, 192.0, 0.0, 0.0, 0.0, 0.0, 0.0, 0.0, 0.0, 0.0, 0.0, 1.6945969246664612E9, 0.0, 2023-09-13 11:22:04.666
19.0, -10.930003038645154, 187500.0, 187500.0, 187500.0, 187500.0, 187500.0, 187500.0, 187500.0, 0.026000000000000002, -0.006, 1.002, 192.0, 0.0, 208.0, 255.0, 208.0, 31.0, 80.0, 0.0, 0.0, 0.0, 1.6945969246664867E9, 0.0, 2023-09-13 11:22:04.666
20.0, -16.1379594967317, 187500.0, 187500.0, 187500.0, 187500.0, 187500.0, 187500.0, 187500.0, 0.026000000000000002, -0.006, 1.002, 192.0, 0.0, 0.0, 0.0, 0.0, 0.0, 0.0, 0.0, 0.0, 0.0, 1.6945969246665132E9, 0.0, 2023-09-13 11:22:04.666
21.0, -35.15929402819801, 187500.0, 187500.0, 187500.0, 187500.0, 187500.0, 187500.0, 187500.0, 0.026000000000000002, -0.006, 1.002, 192.0, 0.0, 0.0, 0.0, 0.0, 0.0, 0.0, 0.0, 0.0, 0.0, 1.6945969246666355E9, 0.0, 2023-09-13 11:22:04.666
22.0, -39.517884196982884, 187500.0, 187500.0, 187500.0, 187500.0, 187500.0, 187500.0, 187500.0, 0.026000000000000002, -0.006, 1.002, 192.0, 0.0, 0.0, 0.0, 0.0, 0.0, 0.0, 0.0, 0.0, 0.0, 1.694596924666844E9, 0.0, 2023-09-13 11:22:04.666
23.0, -39.38377373025104, 187500.0, 187500.0, 187500.0, 187500.0, 187500.0, 187500.0, 187500.0, 0.026000000000000002, -0.006, 1.002, 192.0, 0.0, 0.0, 0.0, 0.0, 0.0, 0.0, 0.0, 0.0, 0.0, 1.6945969246668983E9, 0.0, 2023-09-13 11:22:04.666
24.0, -34.421686461172875, 187500.0, 187500.0, 187500.0, 187500.0, 187500.0, 187500.0, 187500.0, 0.026000000000000002, -0.006, 1.002, 192.0, 0.0, 0.0, 0.0, 0.0, 0.0, 0.0, 0.0, 0.0, 0.0, 1.6945969246669457E9, 0.0, 2023-09-13 11:22:04.666
25.0, -15.556814140893716, 187500.0, 187500.0, 187500.0, 187500.0, 187500.0, 187500.0, 187500.0, 0.026000000000000002, -0.006, 1.002, 192.0, 0.0, 0.0, 0.0, 0.0, 0.0, 0.0, 0.0, 0.0, 0.0, 1.694596924666994E9, 0.0, 2023-09-13 11:22:04.666
26.0, -11.153520483198225, 187500.0, 187500.0, 187500.0, 187500.0, 187500.0, 187500.0, 187500.0, 0.026000000000000002, -0.006, 1.002, 192.0, 0.0, 0.0, 0.0, 0.0, 0.0, 0.0, 0.0, 0.0, 0.0, 1.6945969246670487E9, 0.0, 2023-09-13 11:22:04.667
27.0, -11.220575716564145, 187500.0, 187500.0, 187500.0, 187500.0, 187500.0, 187500.0, 187500.0, 0.026000000000000002, -0.006, 1.002, 192.0, 0.0, 0.0, 0.0, 0.0, 0.0, 0.0, 0.0, 0.0, 0.0, 1.6945969246671047E9, 0.0, 2023-09-13 11:22:04.667
28.0, -16.249718219008233, 187500.0, 187500.0, 187500.0, 187500.0, 187500.0, 187500.0, 187500.0, 0.026000000000000002, -0.006, 1.002, 192.0, 0.0, 0.0, 0.0, 0.0, 0.0, 0.0, 0.0, 0.0, 0.0, 1.6945969246671586E9, 0.0, 2023-09-13 11:22:04.667
29.0, -35.24870100601924, 187500.0, 187500.0, 187500.0, 187500.0, 187500.0, 187500.0, 187500.0, 0.022, -0.002, 1.004, 192.0, 0.0, 176.0, 255.0, 240.0, 31.0, 96.0, 0.0, 0.0, 0.0, 1.6945969246672106E9, 0.0, 2023-09-13 11:22:04.667
30.0, -39.71904989708065, 187500.0, 187500.0, 187500.0, 187500.0, 187500.0, 187500.0, 187500.0, 0.022, -0.002, 1.004, 192.0, 0.0, 0.0, 0.0, 0.0, 0.0, 0.0, 0.0, 0.0, 0.0, 1.6945969246672661E9, 0.0, 2023-09-13 11:22:04.667
31.0, -39.18260803015328, 187500.0, 187500.0, 187500.0, 187500.0, 187500.0, 187500.0, 187500.0, 0.022, -0.002, 1.004, 192.0, 0.0, 0.0, 0.0, 0.0, 0.0, 0.0, 0.0, 0.0, 0.0, 1.6945969246673212E9, 0.0, 2023-09-13 11:22:04.667
32.0, -34.287575994441035, 187500.0, 187500.0, 187500.0, 187500.0, 187500.0, 187500.0, 187500.0, 0.022, -0.002, 1.004, 192.0, 0.0, 0.0, 0.0, 0.0, 0.0, 0.0, 0.0, 0.0, 0.0, 1.6945969246673765E9, 0.0, 2023-09-13 11:22:04.667
33.0, -16.026200774455162, 187500.0, 187500.0, 187500.0, 187500.0, 187500.0, 187500.0, 187500.0, 0.022, -0.002, 1.004, 192.0, 0.0, 0.0, 0.0, 0.0, 0.0, 0.0, 0.0, 0.0, 0.0, 1.6945969246674347E9, 0.0, 2023-09-13 11:22:04.667
34.0, -11.533500138938445, 187500.0, 187500.0, 187500.0, 187500.0, 187500.0, 187500.0, 187500.0, 0.022, -0.002, 1.004, 192.0, 0.0, 0.0, 0.0, 0.0, 0.0, 0.0, 0.0, 0.0, 0.0, 1.6945969246675613E9, 0.0, 2023-09-13 11:22:04.667
35.0, -11.600555372304365, 187500.0, 187500.0, 187500.0, 187500.0, 187500.0, 187500.0, 187500.0, 0.022, -0.002, 1.004, 192.0, 0.0, 0.0, 0.0, 0.0, 0.0, 0.0, 0.0, 0.0, 0.0, 1.694596924667619E9, 0.0, 2023-09-13 11:22:04.667
36.0, -16.67440136365907, 187500.0, 187500.0, 187500.0, 187500.0, 187500.0, 187500.0, 187500.0, 0.022, -0.002, 1.004, 192.0, 0.0, 0.0, 0.0, 0.0, 0.0, 0.0, 0.0, 0.0, 0.0, 1.6945969246676648E9, 0.0, 2023-09-13 11:22:04.667
37.0, -35.025183561466164, 187500.0, 187500.0, 187500.0, 187500.0, 187500.0, 187500.0, 187500.0, 0.022, -0.002, 1.004, 192.0, 0.0, 0.0, 0.0, 0.0, 0.0, 0.0, 0.0, 0.0, 0.0, 1.6945969246680224E9, 0.0, 2023-09-13 11:22:04.668
38.0, -39.31671849688512, 187500.0, 187500.0, 187500.0, 187500.0, 187500.0, 187500.0, 187500.0, 0.022, -0.002, 1.004, 192.0, 0.0, 0.0, 0.0, 0.0, 0.0, 0.0, 0.0, 0.0, 0.0, 1.6945969246680655E9, 0.0, 2023-09-13 11:22:04.668
39.0, -39.048497563421435, 187500.0, 187500.0, 187500.0, 187500.0, 187500.0, 187500.0, 187500.0, 0.026000000000000002, -0.008, 0.998, 192.0, 0.0, 208.0, 255.0, 192.0, 31.0, 48.0, 0.0, 0.0, 0.0, 1.6945969246681097E9, 0.0, 2023-09-13 11:22:04.668
40.0, -34.62285216127064, 187500.0, 187500.0, 187500.0, 187500.0, 187500.0, 187500.0, 187500.0, 0.026000000000000002, -0.008, 0.998, 192.0, 0.0, 0.0, 0.0, 0.0, 0.0, 0.0, 0.0, 0.0, 0.0, 1.6945969246681516E9, 0.0, 2023-09-13 11:22:04.668
41.0, -15.802683329902093, 187500.0, 187500.0, 187500.0, 187500.0, 187500.0, 187500.0, 187500.0, 0.026000000000000002, -0.008, 0.998, 192.0, 0.0, 0.0, 0.0, 0.0, 0.0, 0.0, 0.0, 0.0, 0.0, 1.6945969246681917E9, 0.0, 2023-09-13 11:22:04.668
42.0, -11.220575716564145, 187500.0, 187500.0, 187500.0, 187500.0, 187500.0, 187500.0, 187500.0, 0.026000000000000002, -0.008, 0.998, 192.0, 0.0, 0.0, 0.0, 0.0, 0.0, 0.0, 0.0, 0.0, 0.0, 1.6945969246682353E9, 0.0, 2023-09-13 11:22:04.668
43.0, -11.33233443884068, 187500.0, 187500.0, 187500.0, 187500.0, 187500.0, 187500.0, 187500.0, 0.026000000000000002, -0.008, 0.998, 192.0, 0.0, 0.0, 0.0, 0.0, 0.0, 0.0, 0.0, 0.0, 0.0, 1.6945969246682782E9, 0.0, 2023-09-13 11:22:04.668
44.0, -16.36147694128477, 187500.0, 187500.0, 187500.0, 187500.0, 187500.0, 187500.0, 187500.0, 0.026000000000000002, -0.008, 0.998, 192.0, 0.0, 0.0, 0.0, 0.0, 0.0, 0.0, 0.0, 0.0, 0.0, 1.6945969246683173E9, 0.0, 2023-09-13 11:22:04.668
45.0, -34.824017861368404, 187500.0, 187500.0, 187500.0, 187500.0, 187500.0, 187500.0, 187500.0, 0.026000000000000002, -0.008, 0.998, 192.0, 0.0, 0.0, 0.0, 0.0, 0.0, 0.0, 0.0, 0.0, 0.0, 1.6945969246683547E9, 0.0, 2023-09-13 11:22:04.668
46.0, -39.450828963616964, 187500.0, 187500.0, 187500.0, 187500.0, 187500.0, 187500.0, 187500.0, 0.026000000000000002, -0.008, 0.998, 192.0, 0.0, 0.0, 0.0, 0.0, 0.0, 0.0, 0.0, 0.0, 0.0, 1.6945969246683943E9, 0.0, 2023-09-13 11:22:04.668
47.0, -39.47318070807227, 187500.0, 187500.0, 187500.0, 187500.0, 187500.0, 187500.0, 187500.0, 0.026000000000000002, -0.008, 0.998, 192.0, 0.0, 0.0, 0.0, 0.0, 0.0, 0.0, 0.0, 0.0, 0.0, 1.694596924668435E9, 0.0, 2023-09-13 11:22:04.668
48.0, -34.220520761075115, 187500.0, 187500.0, 187500.0, 187500.0, 187500.0, 187500.0, 187500.0, 0.026000000000000002, -0.008, 0.998, 192.0, 0.0, 0.0, 0.0, 0.0, 0.0, 0.0, 0.0, 0.0, 0.0, 1.694596924668473E9, 0.0, 2023-09-13 11:22:04.668
49.0, -15.8250350743574, 187500.0, 187500.0, 187500.0, 187500.0, 187500.0, 187500.0, 187500.0, 0.028, -0.008, 1.008, 192.0, 0.0, 224.0, 255.0, 192.0, 31.0, 128.0, 0.0, 0.0, 0.0, 1.6945969246685114E9, 0.0, 2023-09-13 11:22:04.668
50.0, -11.42174141666191, 187500.0, 187500.0, 187500.0, 187500.0, 187500.0, 187500.0, 187500.0, 0.028, -0.008, 1.008, 192.0, 0.0, 0.0, 0.0, 0.0, 0.0, 0.0, 0.0, 0.0, 0.0, 1.6945969246685555E9, 0.0, 2023-09-13 11:22:04.668
51.0, -11.198223972108838, 187500.0, 187500.0, 187500.0, 187500.0, 187500.0, 187500.0, 187500.0, 0.028, -0.008, 1.008, 192.0, 0.0, 0.0, 0.0, 0.0, 0.0, 0.0, 0.0, 0.0, 0.0, 1.694596924668594E9, 0.0, 2023-09-13 11:22:04.668
52.0, -16.562642641382535, 187500.0, 187500.0, 187500.0, 187500.0, 187500.0, 187500.0, 187500.0, 0.028, -0.008, 1.008, 192.0, 0.0, 0.0, 0.0, 0.0, 0.0, 0.0, 0.0, 0.0, 0.0, 1.6945969246687014E9, 0.0, 2023-09-13 11:22:04.668
53.0, -35.29340449492985, 187500.0, 187500.0, 187500.0, 187500.0, 187500.0, 187500.0, 187500.0, 0.028, -0.008, 1.008, 192.0, 0.0, 0.0, 0.0, 0.0, 0.0, 0.0, 0.0, 0.0, 0.0, 1.694596924668743E9, 0.0, 2023-09-13 11:22:04.668
54.0, -39.18260803015328, 187500.0, 187500.0, 187500.0, 187500.0, 187500.0, 187500.0, 187500.0, 0.028, -0.008, 1.008, 192.0, 0.0, 0.0, 0.0, 0.0, 0.0, 0.0, 0.0, 0.0, 0.0, 1.6945969246687868E9, 0.0, 2023-09-13 11:22:04.668
55.0, -39.33907024134043, 187500.0, 187500.0, 187500.0, 187500.0, 187500.0, 187500.0, 187500.0, 0.028, -0.008, 1.008, 192.0, 0.0, 0.0, 0.0, 0.0, 0.0, 0.0, 0.0, 0.0, 0.0, 1.694596924668831E9, 0.0, 2023-09-13 11:22:04.668
56.0, -34.68990739463656, 187500.0, 187500.0, 187500.0, 187500.0, 187500.0, 187500.0, 187500.0, 0.028, -0.008, 1.008, 192.0, 0.0, 0.0, 0.0, 0.0, 0.0, 0.0, 0.0, 0.0, 0.0, 1.6945969246688747E9, 0.0, 2023-09-13 11:22:04.668
57.0, -15.847386818812707, 187500.0, 187500.0, 187500.0, 187500.0, 187500.0, 187500.0, 187500.0, 0.028, -0.008, 1.008, 192.0, 0.0, 0.0, 0.0, 0.0, 0.0, 0.0, 0.0, 0.0, 0.0, 1.6945969246689188E9, 0.0, 2023-09-13 11:22:04.668
58.0, -11.377037927751294, 187500.0, 187500.0, 187500.0, 187500.0, 187500.0, 187500.0, 187500.0, 0.028, -0.008, 1.008, 192.0, 0.0, 0.0, 0.0, 0.0, 0.0, 0.0, 0.0, 0.0, 0.0, 1.6945969246689637E9, 0.0, 2023-09-13 11:22:04.668
59.0, -11.377037927751294, 187500.0, 187500.0, 187500.0, 187500.0, 187500.0, 187500.0, 187500.0, 0.026000000000000002, -0.012, 1.004, 192.0, 0.0, 208.0, 255.0, 160.0, 31.0, 96.0, 0.0, 0.0, 0.0, 1.6945969246690092E9, 0.0, 2023-09-13 11:22:04.669
60.0, -16.026200774455162, 187500.0, 187500.0, 187500.0, 187500.0, 187500.0, 187500.0, 187500.0, 0.026000000000000002, -0.012, 1.004, 192.0, 0.0, 0.0, 0.0, 0.0, 0.0, 0.0, 0.0, 0.0, 0.0, 1.694596924669057E9, 0.0, 2023-09-13 11:22:04.669
61.0, -34.8016661169131, 187500.0, 187500.0, 187500.0, 187500.0, 187500.0, 187500.0, 187500.0, 0.026000000000000002, -0.012, 1.004, 192.0, 0.0, 0.0, 0.0, 0.0, 0.0, 0.0, 0.0, 0.0, 0.0, 1.6945969246690984E9, 0.0, 2023-09-13 11:22:04.669
62.0, -39.38377373025104, 187500.0, 187500.0, 187500.0, 187500.0, 187500.0, 187500.0, 187500.0, 0.026000000000000002, -0.012, 1.004, 192.0, 0.0, 0.0, 0.0, 0.0, 0.0, 0.0, 0.0, 0.0, 0.0, 1.6945969246691413E9, 0.0, 2023-09-13 11:22:04.669
63.0, -39.36142198579574, 187500.0, 187500.0, 187500.0, 187500.0, 187500.0, 187500.0, 187500.0, 0.026000000000000002, -0.012, 1.004, 192.0, 0.0, 0.0, 0.0, 0.0, 0.0, 0.0, 0.0, 0.0, 0.0, 1.6945969246691844E9, 0.0, 2023-09-13 11:22:04.669
64.0, -34.287575994441035, 187500.0, 187500.0, 187500.0, 187500.0, 187500.0, 187500.0, 187500.0, 0.026000000000000002, -0.012, 1.004, 192.0, 0.0, 0.0, 0.0, 0.0, 0.0, 0.0, 0.0, 0.0, 0.0, 1.6945969246692257E9, 0.0, 2023-09-13 11:22:04.669
65.0, -15.646221118714944, 187500.0, 187500.0, 187500.0, 187500.0, 187500.0, 187500.0, 187500.0, 0.026000000000000002, -0.012, 1.004, 192.0, 0.0, 0.0, 0.0, 0.0, 0.0, 0.0, 0.0, 0.0, 0.0, 1.6945969246692677E9, 0.0, 2023-09-13 11:22:04.669
66.0, -11.622907116759672, 187500.0, 187500.0, 187500.0, 187500.0, 187500.0, 187500.0, 187500.0, 0.026000000000000002, -0.012, 1.004, 192.0, 0.0, 0.0, 0.0, 0.0, 0.0, 0.0, 0.0, 0.0, 0.0, 1.6945969246693108E9, 0.0, 2023-09-13 11:22:04.669
67.0, -11.578203627849058, 187500.0, 187500.0, 187500.0, 187500.0, 187500.0, 187500.0, 187500.0, 0.026000000000000002, -0.012, 1.004, 192.0, 0.0, 0.0, 0.0, 0.0, 0.0, 0.0, 0.0, 0.0, 0.0, 1.6945969246693544E9, 0.0, 2023-09-13 11:22:04.669
68.0, -16.450883919105998, 187500.0, 187500.0, 187500.0, 187500.0, 187500.0, 187500.0, 187500.0, 0.026000000000000002, -0.012, 1.004, 192.0, 0.0, 0.0, 0.0, 0.0, 0.0, 0.0, 0.0, 0.0, 0.0, 1.6945969246694636E9, 0.0, 2023-09-13 11:22:04.669
69.0, -34.891073094734324, 187500.0, 187500.0, 187500.0, 187500.0, 187500.0, 187500.0, 187500.0, 0.03, -0.014, 1.006, 192.0, 0.0, 240.0, 255.0, 144.0, 31.0, 112.0, 0.0, 0.0, 0.0, 1.6945969246695056E9, 0.0, 2023-09-13 11:22:04.669
70.0, -39.27201500797451, 187500.0, 187500.0, 187500.0, 187500.0, 187500.0, 187500.0, 187500.0, 0.03, -0.014, 1.006, 192.0, 0.0, 0.0, 0.0, 0.0, 0.0, 0.0, 0.0, 0.0, 0.0, 1.694596924669547E9, 0.0, 2023-09-13 11:22:04.669
71.0, -39.42847721916166, 187500.0, 187500.0, 187500.0, 187500.0, 187500.0, 187500.0, 187500.0, 0.03, -0.014, 1.006, 192.0, 0.0, 0.0, 0.0, 0.0, 0.0, 0.0, 0.0, 0.0, 0.0, 1.6945969246695883E9, 0.0, 2023-09-13 11:22:04.669
72.0, -34.46638995008349, 187500.0, 187500.0, 187500.0, 187500.0, 187500.0, 187500.0, 187500.0, 0.03, -0.014, 1.006, 192.0, 0.0, 0.0, 0.0, 0.0, 0.0, 0.0, 0.0, 0.0, 0.0, 1.6945969246696303E9, 0.0, 2023-09-13 11:22:04.669
73.0, -16.003849029999856, 187500.0, 187500.0, 187500.0, 187500.0, 187500.0, 187500.0, 187500.0, 0.03, -0.014, 1.006, 192.0, 0.0, 0.0, 0.0, 0.0, 0.0, 0.0, 0.0, 0.0, 0.0, 1.6945969246696715E9, 0.0, 2023-09-13 11:22:04.669
74.0, -11.48879665002783, 187500.0, 187500.0, 187500.0, 187500.0, 187500.0, 187500.0, 187500.0, 0.03, -0.014, 1.006, 192.0, 0.0, 0.0, 0.0, 0.0, 0.0, 0.0, 0.0, 0.0, 0.0, 1.6945969246697156E9, 0.0, 2023-09-13 11:22:04.669
75.0, -11.913479794678665, 187500.0, 187500.0, 187500.0, 187500.0, 187500.0, 187500.0, 187500.0, 0.03, -0.014, 1.006, 192.0, 0.0, 0.0, 0.0, 0.0, 0.0, 0.0, 0.0, 0.0, 0.0, 1.6945969246697617E9, 0.0, 2023-09-13 11:22:04.669
76.0, -16.540290896927225, 187500.0, 187500.0, 187500.0, 187500.0, 187500.0, 187500.0, 187500.0, 0.03, -0.014, 1.006, 192.0, 0.0, 0.0, 0.0, 0.0, 0.0, 0.0, 0.0, 0.0, 0.0, 1.6945969246698081E9, 0.0, 2023-09-13 11:22:04.669
77.0, -34.891073094734324, 187500.0, 187500.0, 187500.0, 187500.0, 187500.0, 187500.0, 187500.0, 0.03, -0.014, 1.006, 192.0, 0.0, 0.0, 0.0, 0.0, 0.0, 0.0, 0.0, 0.0, 0.0, 1.6945969246698651E9, 0.0, 2023-09-13 11:22:04.669
78.0, -39.47318070807227, 187500.0, 187500.0, 187500.0, 187500.0, 187500.0, 187500.0, 187500.0, 0.03, -0.014, 1.006, 192.0, 0.0, 0.0, 0.0, 0.0, 0.0, 0.0, 0.0, 0.0, 0.0, 1.6945969246699083E9, 0.0, 2023-09-13 11:22:04.669
79.0, -39.49553245252758, 187500.0, 187500.0, 187500.0, 187500.0, 187500.0, 187500.0, 187500.0, 0.036000000000000004, -0.008, 1.006, 192.0, 1.0, 32.0, 255.0, 192.0, 31.0, 112.0, 0.0, 0.0, 0.0, 1.6945969246699488E9, 0.0, 2023-09-13 11:22:04.669
80.0, -34.26522424998573, 187500.0, 187500.0, 187500.0, 187500.0, 187500.0, 187500.0, 187500.0, 0.036000000000000004, -0.008, 1.006, 192.0, 0.0, 0.0, 0.0, 0.0, 0.0, 0.0, 0.0, 0.0, 0.0, 1.694596924669992E9, 0.0, 2023-09-13 11:22:04.669
81.0, -15.735628096536171, 187500.0, 187500.0, 187500.0, 187500.0, 187500.0, 187500.0, 187500.0, 0.036000000000000004, -0.008, 1.006, 192.0, 0.0, 0.0, 0.0, 0.0, 0.0, 0.0, 0.0, 0.0, 0.0, 1.6945969246700351E9, 0.0, 2023-09-13 11:22:04.670
82.0, -11.824072816857436, 187500.0, 187500.0, 187500.0, 187500.0, 187500.0, 187500.0, 187500.0, 0.036000000000000004, -0.008, 1.006, 192.0, 0.0, 0.0, 0.0, 0.0, 0.0, 0.0, 0.0, 0.0, 0.0, 1.6945969246700768E9, 0.0, 2023-09-13 11:22:04.670
83.0, -11.64525886121498, 187500.0, 187500.0, 187500.0, 187500.0, 187500.0, 187500.0, 187500.0, 0.036000000000000004, -0.008, 1.006, 192.0, 0.0, 0.0, 0.0, 0.0, 0.0, 0.0, 0.0, 0.0, 0.0, 1.6945969246701827E9, 0.0, 2023-09-13 11:22:04.670
84.0, -16.1379594967317, 187500.0, 187500.0, 187500.0, 187500.0, 187500.0, 187500.0, 187500.0, 0.036000000000000004, -0.008, 1.006, 192.0, 0.0, 0.0, 0.0, 0.0, 0.0, 0.0, 0.0, 0.0, 0.0, 1.6945969246702087E9, 0.0, 2023-09-13 11:22:04.670
85.0, -34.77931437245779, 187500.0, 187500.0, 187500.0, 187500.0, 187500.0, 187500.0, 187500.0, 0.036000000000000004, -0.008, 1.006, 192.0, 0.0, 0.0, 0.0, 0.0, 0.0, 0.0, 0.0, 0.0, 0.0, 1.694596924670234E9, 0.0, 2023-09-13 11:22:04.670
86.0, -39.13790454124267, 187500.0, 187500.0, 187500.0, 187500.0, 187500.0, 187500.0, 187500.0, 0.036000000000000004, -0.008, 1.006, 192.0, 0.0, 0.0, 0.0, 0.0, 0.0, 0.0, 0.0, 0.0, 0.0, 1.694596924670258E9, 0.0, 2023-09-13 11:22:04.670
87.0, -39.54023594143819, 187500.0, 187500.0, 187500.0, 187500.0, 187500.0, 187500.0, 187500.0, 0.036000000000000004, -0.008, 1.006, 192.0, 0.0, 0.0, 0.0, 0.0, 0.0, 0.0, 0.0, 0.0, 0.0, 1.6945969246702824E9, 0.0, 2023-09-13 11:22:04.670
88.0, -34.71225913909187, 187500.0, 187500.0, 187500.0, 187500.0, 187500.0, 187500.0, 187500.0, 0.036000000000000004, -0.008, 1.006, 192.0, 0.0, 0.0, 0.0, 0.0, 0.0, 0.0, 0.0, 0.0, 0.0, 1.6945969246703067E9, 0.0, 2023-09-13 11:22:04.670
89.0, -15.892090307723322, 187500.0, 187500.0, 187500.0, 187500.0, 187500.0, 187500.0, 187500.0, 0.034, -0.006, 1.006, 192.0, 1.0, 16.0, 255.0, 208.0, 31.0, 112.0, 0.0, 0.0, 0.0, 1.6945969246703312E9, 0.0, 2023-09-13 11:22:04.670
90.0, -11.444093161117216, 187500.0, 187500.0, 187500.0, 187500.0, 187500.0, 187500.0, 187500.0, 0.034, -0.006, 1.006, 192.0, 0.0, 0.0, 0.0, 0.0, 0.0, 0.0, 0.0, 0.0, 0.0, 1.6945969246703568E9, 0.0, 2023-09-13 11:22:04.670
91.0, -11.48879665002783, 187500.0, 187500.0, 187500.0, 187500.0, 187500.0, 187500.0, 187500.0, 0.034, -0.006, 1.006, 192.0, 0.0, 0.0, 0.0, 0.0, 0.0, 0.0, 0.0, 0.0, 0.0, 1.6945969246703813E9, 0.0, 2023-09-13 11:22:04.670
92.0, -16.517939152471918, 187500.0, 187500.0, 187500.0, 187500.0, 187500.0, 187500.0, 187500.0, 0.034, -0.006, 1.006, 192.0, 0.0, 0.0, 0.0, 0.0, 0.0, 0.0, 0.0, 0.0, 0.0, 1.6945969246704051E9, 0.0, 2023-09-13 11:22:04.670
93.0, -35.29340449492985, 187500.0, 187500.0, 187500.0, 187500.0, 187500.0, 187500.0, 187500.0, 0.034, -0.006, 1.006, 192.0, 0.0, 0.0, 0.0, 0.0, 0.0, 0.0, 0.0, 0.0, 0.0, 1.6945969246704297E9, 0.0, 2023-09-13 11:22:04.670
94.0, -39.49553245252758, 187500.0, 187500.0, 187500.0, 187500.0, 187500.0, 187500.0, 187500.0, 0.034, -0.006, 1.006, 192.0, 0.0, 0.0, 0.0, 0.0, 0.0, 0.0, 0.0, 0.0, 0.0, 1.6945969246704543E9, 0.0, 2023-09-13 11:22:04.670
95.0, -39.227311519063896, 187500.0, 187500.0, 187500.0, 187500.0, 187500.0, 187500.0, 187500.0, 0.034, -0.006, 1.006, 192.0, 0.0, 0.0, 0.0, 0.0, 0.0, 0.0, 0.0, 0.0, 0.0, 1.6945969246704783E9, 0.0, 2023-09-13 11:22:04.670
96.0, -34.5110934389941, 187500.0, 187500.0, 187500.0, 187500.0, 187500.0, 187500.0, 187500.0, 0.034, -0.006, 1.006, 192.0, 0.0, 0.0, 0.0, 0.0, 0.0, 0.0, 0.0, 0.0, 0.0, 1.694596924670503E9, 0.0, 2023-09-13 11:22:04.670
97.0, -16.294421707918847, 187500.0, 187500.0, 187500.0, 187500.0, 187500.0, 187500.0, 187500.0, 0.034, -0.006, 1.006, 192.0, 0.0, 0.0, 0.0, 0.0, 0.0, 0.0, 0.0, 0.0, 0.0, 1.6945969246705267E9, 0.0, 2023-09-13 11:22:04.670
98.0, -11.578203627849058, 187500.0, 187500.0, 187500.0, 187500.0, 187500.0, 187500.0, 187500.0, 0.034, -0.006, 1.006, 192.0, 0.0, 0.0, 0.0, 0.0, 0.0, 0.0, 0.0, 0.0, 0.0, 1.6945969246705947E9, 0.0, 2023-09-13 11:22:04.670
99.0, -11.511148394483138, 187500.0, 187500.0, 187500.0, 187500.0, 187500.0, 187500.0, 187500.0, 0.036000000000000004, -0.01, 1.01, 192.0, 1.0, 32.0, 255.0, 176.0, 31.0, 144.0, 0.0, 0.0, 0.0, 1.69459692467062E9, 0.0, 2023-09-13 11:22:04.670
100.0, -16.249718219008233, 187500.0, 187500.0, 187500.0, 187500.0, 187500.0, 187500.0, 187500.0, 0.036000000000000004, -0.01, 1.01, 192.0, 0.0, 0.0, 0.0, 0.0, 0.0, 0.0, 0.0, 0.0, 0.0, 1.6945969246706464E9, 0.0, 2023-09-13 11:22:04.670
101.0, -35.22634926156393, 187500.0, 187500.0, 187500.0, 187500.0, 187500.0, 187500.0, 187500.0, 0.036000000000000004, -0.01, 1.01, 192.0, 0.0, 0.0, 0.0, 0.0, 0.0, 0.0, 0.0, 0.0, 0.0, 1.6945969246706707E9, 0.0, 2023-09-13 11:22:04.670
102.0, -39.85316036381249, 187500.0, 187500.0, 187500.0, 187500.0, 187500.0, 187500.0, 187500.0, 0.036000000000000004, -0.01, 1.01, 192.0, 0.0, 0.0, 0.0, 0.0, 0.0, 0.0, 0.0, 0.0, 0.0, 1.6945969246706977E9, 0.0, 2023-09-13 11:22:04.670
103.0, -39.80845687490188, 187500.0, 187500.0, 187500.0, 187500.0, 187500.0, 187500.0, 187500.0, 0.036000000000000004, -0.01, 1.01, 192.0, 0.0, 0.0, 0.0, 0.0, 0.0, 0.0, 0.0, 0.0, 0.0, 1.694596924670741E9, 0.0, 2023-09-13 11:22:04.670
104.0, -34.77931437245779, 187500.0, 187500.0, 187500.0, 187500.0, 187500.0, 187500.0, 187500.0, 0.036000000000000004, -0.01, 1.01, 192.0, 0.0, 0.0, 0.0, 0.0, 0.0, 0.0, 0.0, 0.0, 0.0, 1.6945969246707911E9, 0.0, 2023-09-13 11:22:04.670
105.0, -16.227366474552927, 187500.0, 187500.0, 187500.0, 187500.0, 187500.0, 187500.0, 187500.0, 0.036000000000000004, -0.01, 1.01, 192.0, 0.0, 0.0, 0.0, 0.0, 0.0, 0.0, 0.0, 0.0, 0.0, 1.694596924670832E9, 0.0, 2023-09-13 11:22:04.670
106.0, -11.86877630576805, 187500.0, 187500.0, 187500.0, 187500.0, 187500.0, 187500.0, 187500.0, 0.036000000000000004, -0.01, 1.01, 192.0, 0.0, 0.0, 0.0, 0.0, 0.0, 0.0, 0.0, 0.0, 0.0, 1.6945969246708748E9, 0.0, 2023-09-13 11:22:04.670
107.0, -11.578203627849058, 187500.0, 187500.0, 187500.0, 187500.0, 187500.0, 187500.0, 187500.0, 0.036000000000000004, -0.01, 1.01, 192.0, 0.0, 0.0, 0.0, 0.0, 0.0, 0.0, 0.0, 0.0, 0.0, 1.6945969251451352E9, 0.0, 2023-09-13 11:22:05.145
108.0, -16.473235663561304, 187500.0, 187500.0, 187500.0, 187500.0, 187500.0, 187500.0, 187500.0, 0.036000000000000004, -0.01, 1.01, 192.0, 0.0, 0.0, 0.0, 0.0, 0.0, 0.0, 0.0, 0.0, 0.0, 1.6945969251452794E9, 0.0, 2023-09-13 11:22:05.145
109.0, -35.405163217206386, 187500.0, 187500.0, 187500.0, 187500.0, 187500.0, 187500.0, 187500.0, 0.032, -0.012, 1.008, 192.0, 1.0, 0.0, 255.0, 160.0, 31.0, 128.0, 0.0, 0.0, 0.0, 1.6945969251453404E9, 0.0, 2023-09-13 11:22:05.145
110.0, -39.65199466371473, 187500.0, 187500.0, 187500.0, 187500.0, 187500.0, 187500.0, 187500.0, 0.032, -0.012, 1.008, 192.0, 0.0, 0.0, 0.0, 0.0, 0.0, 0.0, 0.0, 0.0, 0.0, 1.6945969251454551E9, 0.0, 2023-09-13 11:22:05.145
111.0, -39.696698152625345, 187500.0, 187500.0, 187500.0, 187500.0, 187500.0, 187500.0, 187500.0, 0.032, -0.012, 1.008, 192.0, 0.0, 0.0, 0.0, 0.0, 0.0, 0.0, 0.0, 0.0, 0.0, 1.6945969251455023E9, 0.0, 2023-09-13 11:22:05.145
112.0, -34.64520390572595, 187500.0, 187500.0, 187500.0, 187500.0, 187500.0, 187500.0, 187500.0, 0.032, -0.012, 1.008, 192.0, 0.0, 0.0, 0.0, 0.0, 0.0, 0.0, 0.0, 0.0, 0.0, 1.6945969251455443E9, 0.0, 2023-09-13 11:22:05.145
113.0, -15.690924607625558, 187500.0, 187500.0, 187500.0, 187500.0, 187500.0, 187500.0, 187500.0, 0.032, -0.012, 1.008, 192.0, 0.0, 0.0, 0.0, 0.0, 0.0, 0.0, 0.0, 0.0, 0.0, 1.694596925145584E9, 0.0, 2023-09-13 11:22:05.145
114.0, -11.578203627849058, 187500.0, 187500.0, 187500.0, 187500.0, 187500.0, 187500.0, 187500.0, 0.032, -0.012, 1.008, 192.0, 0.0, 0.0, 0.0, 0.0, 0.0, 0.0, 0.0, 0.0, 0.0, 1.6945969251457226E9, 0.0, 2023-09-13 11:22:05.145
115.0, -11.466444905572523, 187500.0, 187500.0, 187500.0, 187500.0, 187500.0, 187500.0, 187500.0, 0.032, -0.012, 1.008, 192.0, 0.0, 0.0, 0.0, 0.0, 0.0, 0.0, 0.0, 0.0, 0.0, 1.694596925145762E9, 0.0, 2023-09-13 11:22:05.145
116.0, -16.339125196829464, 187500.0, 187500.0, 187500.0, 187500.0, 187500.0, 187500.0, 187500.0, 0.032, -0.012, 1.008, 192.0, 0.0, 0.0, 0.0, 0.0, 0.0, 0.0, 0.0, 0.0, 0.0, 1.6945969251458015E9, 0.0, 2023-09-13 11:22:05.145
117.0, -35.18164577265332, 187500.0, 187500.0, 187500.0, 187500.0, 187500.0, 187500.0, 187500.0, 0.032, -0.012, 1.008, 192.0, 0.0, 0.0, 0.0, 0.0, 0.0, 0.0, 0.0, 0.0, 0.0, 1.6945969251458423E9, 0.0, 2023-09-13 11:22:05.145
118.0, -39.47318070807227, 187500.0, 187500.0, 187500.0, 187500.0, 187500.0, 187500.0, 187500.0, 0.032, -0.012, 1.008, 192.0, 0.0, 0.0, 0.0, 0.0, 0.0, 0.0, 0.0, 0.0, 0.0, 1.694596925145886E9, 0.0, 2023-09-13 11:22:05.145
119.0, -39.31671849688512, 187500.0, 187500.0, 187500.0, 187500.0, 187500.0, 187500.0, 187500.0, 0.026000000000000002, -0.008, 1.002, 192.0, 0.0, 208.0, 255.0, 192.0, 31.0, 80.0, 0.0, 0.0, 0.0, 1.6945969251459255E9, 0.0, 2023-09-13 11:22:05.145
120.0, -34.555796927904716, 187500.0, 187500.0, 187500.0, 187500.0, 187500.0, 187500.0, 187500.0, 0.026000000000000002, -0.008, 1.002, 192.0, 0.0, 0.0, 0.0, 0.0, 0.0, 0.0, 0.0, 0.0, 0.0, 1.6945969251459675E9, 0.0, 2023-09-13 11:22:05.145
121.0, -16.003849029999856, 187500.0, 187500.0, 187500.0, 187500.0, 187500.0, 187500.0, 187500.0, 0.026000000000000002, -0.008, 1.002, 192.0, 0.0, 0.0, 0.0, 0.0, 0.0, 0.0, 0.0, 0.0, 0.0, 1.694596925146006E9, 0.0, 2023-09-13 11:22:05.146
122.0, -11.444093161117216, 187500.0, 187500.0, 187500.0, 187500.0, 187500.0, 187500.0, 187500.0, 0.026000000000000002, -0.008, 1.002, 192.0, 0.0, 0.0, 0.0, 0.0, 0.0, 0.0, 0.0, 0.0, 0.0, 1.6945969251460485E9, 0.0, 2023-09-13 11:22:05.146
123.0, -11.64525886121498, 187500.0, 187500.0, 187500.0, 187500.0, 187500.0, 187500.0, 187500.0, 0.026000000000000002, -0.008, 1.002, 192.0, 0.0, 0.0, 0.0, 0.0, 0.0, 0.0, 0.0, 0.0, 0.0, 1.6945969251460874E9, 0.0, 2023-09-13 11:22:05.146
124.0, -16.696753108114375, 187500.0, 187500.0, 187500.0, 187500.0, 187500.0, 187500.0, 187500.0, 0.026000000000000002, -0.008, 1.002, 192.0, 0.0, 0.0, 0.0, 0.0, 0.0, 0.0, 0.0, 0.0, 0.0, 1.6945969251461256E9, 0.0, 2023-09-13 11:22:05.146
125.0, -35.203997517108625, 187500.0, 187500.0, 187500.0, 187500.0, 187500.0, 187500.0, 187500.0, 0.026000000000000002, -0.008, 1.002, 192.0, 0.0, 0.0, 0.0, 0.0, 0.0, 0.0, 0.0, 0.0, 0.0, 1.6945969251461673E9, 0.0, 2023-09-13 11:22:05.146
126.0, -39.67434640817004, 187500.0, 187500.0, 187500.0, 187500.0, 187500.0, 187500.0, 187500.0, 0.026000000000000002, -0.008, 1.002, 192.0, 0.0, 0.0, 0.0, 0.0, 0.0, 0.0, 0.0, 0.0, 0.0, 1.694596925146209E9, 0.0, 2023-09-13 11:22:05.146
127.0, -39.54023594143819, 187500.0, 187500.0, 187500.0, 187500.0, 187500.0, 187500.0, 187500.0, 0.026000000000000002, -0.008, 1.002, 192.0, 0.0, 0.0, 0.0, 0.0, 0.0, 0.0, 0.0, 0.0, 0.0, 1.6945969251462507E9, 0.0, 2023-09-13 11:22:05.146
128.0, -34.600500416815336, 187500.0, 187500.0, 187500.0, 187500.0, 187500.0, 187500.0, 187500.0, 0.026000000000000002, -0.008, 1.002, 192.0, 0.0, 0.0, 0.0, 0.0, 0.0, 0.0, 0.0, 0.0, 0.0, 1.694596925146292E9, 0.0, 2023-09-13 11:22:05.146
129.0, -15.914442052178629, 187500.0, 187500.0, 187500.0, 187500.0, 187500.0, 187500.0, 187500.0, 0.028, -0.006, 1.0, 192.0, 0.0, 224.0, 255.0, 208.0, 31.0, 64.0, 0.0, 0.0, 0.0, 1.6945969251463802E9, 0.0, 2023-09-13 11:22:05.146
130.0, -11.533500138938445, 187500.0, 187500.0, 187500.0, 187500.0, 187500.0, 187500.0, 187500.0, 0.028, -0.006, 1.0, 192.0, 0.0, 0.0, 0.0, 0.0, 0.0, 0.0, 0.0, 0.0, 0.0, 1.6945969251464198E9, 0.0, 2023-09-13 11:22:05.146
131.0, -11.555851883393752, 187500.0, 187500.0, 187500.0, 187500.0, 187500.0, 187500.0, 187500.0, 0.028, -0.006, 1.0, 192.0, 0.0, 0.0, 0.0, 0.0, 0.0, 0.0, 0.0, 0.0, 0.0, 1.694596925146463E9, 0.0, 2023-09-13 11:22:05.146
132.0, -16.473235663561304, 187500.0, 187500.0, 187500.0, 187500.0, 187500.0, 187500.0, 187500.0, 0.028, -0.006, 1.0, 192.0, 0.0, 0.0, 0.0, 0.0, 0.0, 0.0, 0.0, 0.0, 0.0, 1.6945969251465075E9, 0.0, 2023-09-13 11:22:05.146
133.0, -34.86872135027902, 187500.0, 187500.0, 187500.0, 187500.0, 187500.0, 187500.0, 187500.0, 0.028, -0.006, 1.0, 192.0, 0.0, 0.0, 0.0, 0.0, 0.0, 0.0, 0.0, 0.0, 0.0, 1.694596925146551E9, 0.0, 2023-09-13 11:22:05.146
134.0, -39.294366752429816, 187500.0, 187500.0, 187500.0, 187500.0, 187500.0, 187500.0, 187500.0, 0.028, -0.006, 1.0, 192.0, 0.0, 0.0, 0.0, 0.0, 0.0, 0.0, 0.0, 0.0, 0.0, 1.6945969251465878E9, 0.0, 2023-09-13 11:22:05.146
135.0, -39.31671849688512, 187500.0, 187500.0, 187500.0, 187500.0, 187500.0, 187500.0, 187500.0, 0.028, -0.006, 1.0, 192.0, 0.0, 0.0, 0.0, 0.0, 0.0, 0.0, 0.0, 0.0, 0.0, 1.6945969251466248E9, 0.0, 2023-09-13 11:22:05.146
136.0, -34.555796927904716, 187500.0, 187500.0, 187500.0, 187500.0, 187500.0, 187500.0, 187500.0, 0.028, -0.006, 1.0, 192.0, 0.0, 0.0, 0.0, 0.0, 0.0, 0.0, 0.0, 0.0, 0.0, 1.6945969251466644E9, 0.0, 2023-09-13 11:22:05.146
137.0, -15.869738563268015, 187500.0, 187500.0, 187500.0, 187500.0, 187500.0, 187500.0, 187500.0, 0.028, -0.006, 1.0, 192.0, 0.0, 0.0, 0.0, 0.0, 0.0, 0.0, 0.0, 0.0, 0.0, 1.6945969251467066E9, 0.0, 2023-09-13 11:22:05.146
138.0, -11.600555372304365, 187500.0, 187500.0, 187500.0, 187500.0, 187500.0, 187500.0, 187500.0, 0.028, -0.006, 1.0, 192.0, 0.0, 0.0, 0.0, 0.0, 0.0, 0.0, 0.0, 0.0, 0.0, 1.69459692514675E9, 0.0, 2023-09-13 11:22:05.146
139.0, -11.667610605670287, 187500.0, 187500.0, 187500.0, 187500.0, 187500.0, 187500.0, 187500.0, 0.026000000000000002, -0.008, 1.002, 192.0, 0.0, 208.0, 255.0, 192.0, 31.0, 80.0, 0.0, 0.0, 0.0, 1.6945969251467907E9, 0.0, 2023-09-13 11:22:05.146
140.0, -16.763808341480296, 187500.0, 187500.0, 187500.0, 187500.0, 187500.0, 187500.0, 187500.0, 0.026000000000000002, -0.008, 1.002, 192.0, 0.0, 0.0, 0.0, 0.0, 0.0, 0.0, 0.0, 0.0, 0.0, 1.6945969251468368E9, 0.0, 2023-09-13 11:22:05.146
141.0, -35.22634926156393, 187500.0, 187500.0, 187500.0, 187500.0, 187500.0, 187500.0, 187500.0, 0.026000000000000002, -0.008, 1.002, 192.0, 0.0, 0.0, 0.0, 0.0, 0.0, 0.0, 0.0, 0.0, 0.0, 1.6945969251468787E9, 0.0, 2023-09-13 11:22:05.146
142.0, -39.49553245252758, 187500.0, 187500.0, 187500.0, 187500.0, 187500.0, 187500.0, 187500.0, 0.026000000000000002, -0.008, 1.002, 192.0, 0.0, 0.0, 0.0, 0.0, 0.0, 0.0, 0.0, 0.0, 0.0, 1.6945969251469216E9, 0.0, 2023-09-13 11:22:05.146
143.0, -39.8755121082678, 187500.0, 187500.0, 187500.0, 187500.0, 187500.0, 187500.0, 187500.0, 0.026000000000000002, -0.008, 1.002, 192.0, 0.0, 0.0, 0.0, 0.0, 0.0, 0.0, 0.0, 0.0, 0.0, 1.694596925146962E9, 0.0, 2023-09-13 11:22:05.146
144.0, -34.66755565018126, 187500.0, 187500.0, 187500.0, 187500.0, 187500.0, 187500.0, 187500.0, 0.026000000000000002, -0.008, 1.002, 192.0, 0.0, 0.0, 0.0, 0.0, 0.0, 0.0, 0.0, 0.0, 0.0, 1.694596925147053E9, 0.0, 2023-09-13 11:22:05.147
145.0, -15.44505541861718, 187500.0, 187500.0, 187500.0, 187500.0, 187500.0, 187500.0, 187500.0, 0.026000000000000002, -0.008, 1.002, 192.0, 0.0, 0.0, 0.0, 0.0, 0.0, 0.0, 0.0, 0.0, 0.0, 1.6945969251470976E9, 0.0, 2023-09-13 11:22:05.147
146.0, -11.086465249832303, 187500.0, 187500.0, 187500.0, 187500.0, 187500.0, 187500.0, 187500.0, 0.026000000000000002, -0.008, 1.002, 192.0, 0.0, 0.0, 0.0, 0.0, 0.0, 0.0, 0.0, 0.0, 0.0, 1.6945969251471412E9, 0.0, 2023-09-13 11:22:05.147
147.0, -11.533500138938445, 187500.0, 187500.0, 187500.0, 187500.0, 187500.0, 187500.0, 187500.0, 0.026000000000000002, -0.008, 1.002, 192.0, 0.0, 0.0, 0.0, 0.0, 0.0, 0.0, 0.0, 0.0, 0.0, 1.6945969251471844E9, 0.0, 2023-09-13 11:22:05.147
148.0, -16.96497404157806, 187500.0, 187500.0, 187500.0, 187500.0, 187500.0, 187500.0, 187500.0, 0.026000000000000002, -0.012, 1.004, 192.0, 0.0, 208.0, 255.0, 160.0, 31.0, 96.0, 0.0, 0.0, 0.0, 1.6945969251472273E9, 0.0, 2023-09-13 11:22:05.147
149.0, -35.00283181701086, 187500.0, 187500.0, 187500.0, 187500.0, 187500.0, 187500.0, 187500.0, 0.026000000000000002, -0.012, 1.004, 192.0, 0.0, 0.0, 0.0, 0.0, 0.0, 0.0, 0.0, 0.0, 0.0, 1.6945969251472704E9, 0.0, 2023-09-13 11:22:05.147
150.0, -38.95909058560021, 187500.0, 187500.0, 187500.0, 187500.0, 187500.0, 187500.0, 187500.0, 0.026000000000000002, -0.012, 1.004, 192.0, 0.0, 0.0, 0.0, 0.0, 0.0, 0.0, 0.0, 0.0, 0.0, 1.694596925147312E9, 0.0, 2023-09-13 11:22:05.147
151.0, -39.38377373025104, 187500.0, 187500.0, 187500.0, 187500.0, 187500.0, 187500.0, 187500.0, 0.026000000000000002, -0.012, 1.004, 192.0, 0.0, 0.0, 0.0, 0.0, 0.0, 0.0, 0.0, 0.0, 0.0, 1.6945969251473513E9, 0.0, 2023-09-13 11:22:05.147
152.0, -34.68990739463656, 187500.0, 187500.0, 187500.0, 187500.0, 187500.0, 187500.0, 187500.0, 0.026000000000000002, -0.012, 1.004, 192.0, 0.0, 0.0, 0.0, 0.0, 0.0, 0.0, 0.0, 0.0, 0.0, 1.6945969251473978E9, 0.0, 2023-09-13 11:22:05.147
153.0, -16.160311241187006, 187500.0, 187500.0, 187500.0, 187500.0, 187500.0, 187500.0, 187500.0, 0.026000000000000002, -0.012, 1.004, 192.0, 0.0, 0.0, 0.0, 0.0, 0.0, 0.0, 0.0, 0.0, 0.0, 1.694596925147445E9, 0.0, 2023-09-13 11:22:05.147
154.0, -11.26527920547476, 187500.0, 187500.0, 187500.0, 187500.0, 187500.0, 187500.0, 187500.0, 0.026000000000000002, -0.012, 1.004, 192.0, 0.0, 0.0, 0.0, 0.0, 0.0, 0.0, 0.0, 0.0, 0.0, 1.6945969251474867E9, 0.0, 2023-09-13 11:22:05.147
155.0, -11.287630949930067, 187500.0, 187500.0, 187500.0, 187500.0, 187500.0, 187500.0, 187500.0, 0.026000000000000002, -0.012, 1.004, 192.0, 0.0, 0.0, 0.0, 0.0, 0.0, 0.0, 0.0, 0.0, 0.0, 1.6945969251475267E9, 0.0, 2023-09-13 11:22:05.147
156.0, -16.473235663561304, 187500.0, 187500.0, 187500.0, 187500.0, 187500.0, 187500.0, 187500.0, 0.026000000000000002, -0.012, 1.004, 192.0, 0.0, 0.0, 0.0, 0.0, 0.0, 0.0, 0.0, 0.0, 0.0, 1.6945969251475687E9, 0.0, 2023-09-13 11:22:05.147
157.0, -35.29340449492985, 187500.0, 187500.0, 187500.0, 187500.0, 187500.0, 187500.0, 187500.0, 0.026000000000000002, -0.012, 1.004, 192.0, 0.0, 0.0, 0.0, 0.0, 0.0, 0.0, 0.0, 0.0, 0.0, 1.694596925147612E9, 0.0, 2023-09-13 11:22:05.147
158.0, -39.65199466371473, 187500.0, 187500.0, 187500.0, 187500.0, 187500.0, 187500.0, 187500.0, 0.03, -0.012, 1.004, 192.0, 0.0, 240.0, 255.0, 160.0, 31.0, 96.0, 0.0, 0.0, 0.0, 1.6945969251476548E9, 0.0, 2023-09-13 11:22:05.147
159.0, -39.38377373025104, 187500.0, 187500.0, 187500.0, 187500.0, 187500.0, 187500.0, 187500.0, 0.03, -0.012, 1.004, 192.0, 0.0, 0.0, 0.0, 0.0, 0.0, 0.0, 0.0, 0.0, 0.0, 1.6945969251477003E9, 0.0, 2023-09-13 11:22:05.147
160.0, -34.44403820562818, 187500.0, 187500.0, 187500.0, 187500.0, 187500.0, 187500.0, 187500.0, 0.03, -0.012, 1.004, 192.0, 0.0, 0.0, 0.0, 0.0, 0.0, 0.0, 0.0, 0.0, 0.0, 1.6945969251477945E9, 0.0, 2023-09-13 11:22:05.147
161.0, -15.936793796633935, 187500.0, 187500.0, 187500.0, 187500.0, 187500.0, 187500.0, 187500.0, 0.03, -0.012, 1.004, 192.0, 0.0, 0.0, 0.0, 0.0, 0.0, 0.0, 0.0, 0.0, 0.0, 1.6945969251478357E9, 0.0, 2023-09-13 11:22:05.147
162.0, -11.689962350125594, 187500.0, 187500.0, 187500.0, 187500.0, 187500.0, 187500.0, 187500.0, 0.03, -0.012, 1.004, 192.0, 0.0, 0.0, 0.0, 0.0, 0.0, 0.0, 0.0, 0.0, 0.0, 1.6945969251478748E9, 0.0, 2023-09-13 11:22:05.147
163.0, -11.86877630576805, 187500.0, 187500.0, 187500.0, 187500.0, 187500.0, 187500.0, 187500.0, 0.03, -0.012, 1.004, 192.0, 0.0, 0.0, 0.0, 0.0, 0.0, 0.0, 0.0, 0.0, 0.0, 1.6945969251479173E9, 0.0, 2023-09-13 11:22:05.147
164.0, -16.294421707918847, 187500.0, 187500.0, 187500.0, 187500.0, 187500.0, 187500.0, 187500.0, 0.03, -0.012, 1.004, 192.0, 0.0, 0.0, 0.0, 0.0, 0.0, 0.0, 0.0, 0.0, 0.0, 1.6945969251479585E9, 0.0, 2023-09-13 11:22:05.147
165.0, -35.06988705037678, 187500.0, 187500.0, 187500.0, 187500.0, 187500.0, 187500.0, 187500.0, 0.03, -0.012, 1.004, 192.0, 0.0, 0.0, 0.0, 0.0, 0.0, 0.0, 0.0, 0.0, 0.0, 1.6945969251479983E9, 0.0, 2023-09-13 11:22:05.147
166.0, -39.60729117480412, 187500.0, 187500.0, 187500.0, 187500.0, 187500.0, 187500.0, 187500.0, 0.03, -0.012, 1.004, 192.0, 0.0, 0.0, 0.0, 0.0, 0.0, 0.0, 0.0, 0.0, 0.0, 1.6945969251480403E9, 0.0, 2023-09-13 11:22:05.148
167.0, -39.36142198579574, 187500.0, 187500.0, 187500.0, 187500.0, 187500.0, 187500.0, 187500.0, 0.03, -0.012, 1.004, 192.0, 0.0, 0.0, 0.0, 0.0, 0.0, 0.0, 0.0, 0.0, 0.0, 1.6945969251480875E9, 0.0, 2023-09-13 11:22:05.148
168.0, -34.64520390572595, 187500.0, 187500.0, 187500.0, 187500.0, 187500.0, 187500.0, 187500.0, 0.03, -0.016, 1.004, 192.0, 0.0, 240.0, 255.0, 128.0, 31.0, 96.0, 0.0, 0.0, 0.0, 1.6945969251481264E9, 0.0, 2023-09-13 11:22:05.148
169.0, -15.892090307723322, 187500.0, 187500.0, 187500.0, 187500.0, 187500.0, 187500.0, 187500.0, 0.03, -0.016, 1.004, 192.0, 0.0, 0.0, 0.0, 0.0, 0.0, 0.0, 0.0, 0.0, 0.0, 1.6945969251481721E9, 0.0, 2023-09-13 11:22:05.148
170.0, -11.779369327946823, 187500.0, 187500.0, 187500.0, 187500.0, 187500.0, 187500.0, 187500.0, 0.03, -0.016, 1.004, 192.0, 0.0, 0.0, 0.0, 0.0, 0.0, 0.0, 0.0, 0.0, 0.0, 1.6945969251482122E9, 0.0, 2023-09-13 11:22:05.148
171.0, -11.7123140945809, 187500.0, 187500.0, 187500.0, 187500.0, 187500.0, 187500.0, 187500.0, 0.03, -0.016, 1.004, 192.0, 0.0, 0.0, 0.0, 0.0, 0.0, 0.0, 0.0, 0.0, 0.0, 1.6945969251482537E9, 0.0, 2023-09-13 11:22:05.148
172.0, -16.629697874748455, 187500.0, 187500.0, 187500.0, 187500.0, 187500.0, 187500.0, 187500.0, 0.03, -0.016, 1.004, 192.0, 0.0, 0.0, 0.0, 0.0, 0.0, 0.0, 0.0, 0.0, 0.0, 1.6945969251482935E9, 0.0, 2023-09-13 11:22:05.148
173.0, -35.15929402819801, 187500.0, 187500.0, 187500.0, 187500.0, 187500.0, 187500.0, 187500.0, 0.03, -0.016, 1.004, 192.0, 0.0, 0.0, 0.0, 0.0, 0.0, 0.0, 0.0, 0.0, 0.0, 1.694596925148333E9, 0.0, 2023-09-13 11:22:05.148
174.0, -39.562587685893504, 187500.0, 187500.0, 187500.0, 187500.0, 187500.0, 187500.0, 187500.0, 0.03, -0.016, 1.004, 192.0, 0.0, 0.0, 0.0, 0.0, 0.0, 0.0, 0.0, 0.0, 0.0, 1.694596925148373E9, 0.0, 2023-09-13 11:22:05.148
175.0, -39.31671849688512, 187500.0, 187500.0, 187500.0, 187500.0, 187500.0, 187500.0, 187500.0, 0.03, -0.016, 1.004, 192.0, 0.0, 0.0, 0.0, 0.0, 0.0, 0.0, 0.0, 0.0, 0.0, 1.694596925148473E9, 0.0, 2023-09-13 11:22:05.148
176.0, -34.5110934389941, 187500.0, 187500.0, 187500.0, 187500.0, 187500.0, 187500.0, 187500.0, 0.03, -0.016, 1.004, 192.0, 0.0, 0.0, 0.0, 0.0, 0.0, 0.0, 0.0, 0.0, 0.0, 1.694596925148524E9, 0.0, 2023-09-13 11:22:05.148
177.0, -16.1379594967317, 187500.0, 187500.0, 187500.0, 187500.0, 187500.0, 187500.0, 187500.0, 0.03, -0.016, 1.004, 192.0, 0.0, 0.0, 0.0, 0.0, 0.0, 0.0, 0.0, 0.0, 0.0, 1.6945969251485653E9, 0.0, 2023-09-13 11:22:05.148
178.0, -11.7123140945809, 187500.0, 187500.0, 187500.0, 187500.0, 187500.0, 187500.0, 187500.0, 0.026000000000000002, -0.016, 1.002, 192.0, 0.0, 208.0, 255.0, 128.0, 31.0, 80.0, 0.0, 0.0, 0.0, 1.6945969251486049E9, 0.0, 2023-09-13 11:22:05.148
179.0, -11.824072816857436, 187500.0, 187500.0, 187500.0, 187500.0, 187500.0, 187500.0, 187500.0, 0.026000000000000002, -0.016, 1.002, 192.0, 0.0, 0.0, 0.0, 0.0, 0.0, 0.0, 0.0, 0.0, 0.0, 1.6945969251486464E9, 0.0, 2023-09-13 11:22:05.148
180.0, -16.562642641382535, 187500.0, 187500.0, 187500.0, 187500.0, 187500.0, 187500.0, 187500.0, 0.026000000000000002, -0.016, 1.002, 192.0, 0.0, 0.0, 0.0, 0.0, 0.0, 0.0, 0.0, 0.0, 0.0, 1.6945969251486855E9, 0.0, 2023-09-13 11:22:05.148
181.0, -34.68990739463656, 187500.0, 187500.0, 187500.0, 187500.0, 187500.0, 187500.0, 187500.0, 0.026000000000000002, -0.016, 1.002, 192.0, 0.0, 0.0, 0.0, 0.0, 0.0, 0.0, 0.0, 0.0, 0.0, 1.6945969251487243E9, 0.0, 2023-09-13 11:22:05.148
182.0, -39.227311519063896, 187500.0, 187500.0, 187500.0, 187500.0, 187500.0, 187500.0, 187500.0, 0.026000000000000002, -0.016, 1.002, 192.0, 0.0, 0.0, 0.0, 0.0, 0.0, 0.0, 0.0, 0.0, 0.0, 1.6945969251487637E9, 0.0, 2023-09-13 11:22:05.148
183.0, -39.60729117480412, 187500.0, 187500.0, 187500.0, 187500.0, 187500.0, 187500.0, 187500.0, 0.026000000000000002, -0.016, 1.002, 192.0, 0.0, 0.0, 0.0, 0.0, 0.0, 0.0, 0.0, 0.0, 0.0, 1.6945969251488028E9, 0.0, 2023-09-13 11:22:05.148
184.0, -34.600500416815336, 187500.0, 187500.0, 187500.0, 187500.0, 187500.0, 187500.0, 187500.0, 0.026000000000000002, -0.016, 1.002, 192.0, 0.0, 0.0, 0.0, 0.0, 0.0, 0.0, 0.0, 0.0, 0.0, 1.6945969251488416E9, 0.0, 2023-09-13 11:22:05.148
185.0, -15.668572863170251, 187500.0, 187500.0, 187500.0, 187500.0, 187500.0, 187500.0, 187500.0, 0.026000000000000002, -0.016, 1.002, 192.0, 0.0, 0.0, 0.0, 0.0, 0.0, 0.0, 0.0, 0.0, 0.0, 1.6945969251488807E9, 0.0, 2023-09-13 11:22:05.148
186.0, -11.622907116759672, 187500.0, 187500.0, 187500.0, 187500.0, 187500.0, 187500.0, 187500.0, 0.026000000000000002, -0.016, 1.002, 192.0, 0.0, 0.0, 0.0, 0.0, 0.0, 0.0, 0.0, 0.0, 0.0, 1.6945969251489198E9, 0.0, 2023-09-13 11:22:05.148
187.0, -11.533500138938445, 187500.0, 187500.0, 187500.0, 187500.0, 187500.0, 187500.0, 187500.0, 0.026000000000000002, -0.016, 1.002, 192.0, 0.0, 0.0, 0.0, 0.0, 0.0, 0.0, 0.0, 0.0, 0.0, 1.6945969251489587E9, 0.0, 2023-09-13 11:22:05.148
188.0, -16.294421707918847, 187500.0, 187500.0, 187500.0, 187500.0, 187500.0, 187500.0, 187500.0, 0.032, -0.018000000000000002, 1.002, 192.0, 1.0, 0.0, 255.0, 112.0, 31.0, 80.0, 0.0, 0.0, 0.0, 1.6945969251490035E9, 0.0, 2023-09-13 11:22:05.149
189.0, -35.22634926156393, 187500.0, 187500.0, 187500.0, 187500.0, 187500.0, 187500.0, 187500.0, 0.032, -0.018000000000000002, 1.002, 192.0, 0.0, 0.0, 0.0, 0.0, 0.0, 0.0, 0.0, 0.0, 0.0, 1.6945969251490448E9, 0.0, 2023-09-13 11:22:05.149
190.0, -39.58493943034881, 187500.0, 187500.0, 187500.0, 187500.0, 187500.0, 187500.0, 187500.0, 0.032, -0.018000000000000002, 1.002, 192.0, 0.0, 0.0, 0.0, 0.0, 0.0, 0.0, 0.0, 0.0, 0.0, 1.6945969251491492E9, 0.0, 2023-09-13 11:22:05.149
191.0, -39.58493943034881, 187500.0, 187500.0, 187500.0, 187500.0, 187500.0, 187500.0, 187500.0, 0.032, -0.018000000000000002, 1.002, 192.0, 0.0, 0.0, 0.0, 0.0, 0.0, 0.0, 0.0, 0.0, 0.0, 1.694596925149191E9, 0.0, 2023-09-13 11:22:05.149
192.0, -34.66755565018126, 187500.0, 187500.0, 187500.0, 187500.0, 187500.0, 187500.0, 187500.0, 0.032, -0.018000000000000002, 1.002, 192.0, 0.0, 0.0, 0.0, 0.0, 0.0, 0.0, 0.0, 0.0, 0.0, 1.694596925149231E9, 0.0, 2023-09-13 11:22:05.149
193.0, -16.026200774455162, 187500.0, 187500.0, 187500.0, 187500.0, 187500.0, 187500.0, 187500.0, 0.032, -0.018000000000000002, 1.002, 192.0, 0.0, 0.0, 0.0, 0.0, 0.0, 0.0, 0.0, 0.0, 0.0, 1.6945969251492708E9, 0.0, 2023-09-13 11:22:05.149
194.0, -11.086465249832303, 187500.0, 187500.0, 187500.0, 187500.0, 187500.0, 187500.0, 187500.0, 0.032, -0.018000000000000002, 1.002, 192.0, 0.0, 0.0, 0.0, 0.0, 0.0, 0.0, 0.0, 0.0, 0.0, 1.6945969251493108E9, 0.0, 2023-09-13 11:22:05.149
195.0, -11.48879665002783, 187500.0, 187500.0, 187500.0, 187500.0, 187500.0, 187500.0, 187500.0, 0.032, -0.018000000000000002, 1.002, 192.0, 0.0, 0.0, 0.0, 0.0, 0.0, 0.0, 0.0, 0.0, 0.0, 1.6945969251493497E9, 0.0, 2023-09-13 11:22:05.149
196.0, -16.58499438583784, 187500.0, 187500.0, 187500.0, 187500.0, 187500.0, 187500.0, 187500.0, 0.032, -0.018000000000000002, 1.002, 192.0, 0.0, 0.0, 0.0, 0.0, 0.0, 0.0, 0.0, 0.0, 0.0, 1.6945969251493907E9, 0.0, 2023-09-13 11:22:05.149
197.0, -34.98048007255555, 187500.0, 187500.0, 187500.0, 187500.0, 187500.0, 187500.0, 187500.0, 0.032, -0.018000000000000002, 1.002, 192.0, 0.0, 0.0, 0.0, 0.0, 0.0, 0.0, 0.0, 0.0, 0.0, 1.6945969251494353E9, 0.0, 2023-09-13 11:22:05.149
198.0, -39.629642919259425, 187500.0, 187500.0, 187500.0, 187500.0, 187500.0, 187500.0, 187500.0, 0.026000000000000002, -0.014, 1.006, 192.0, 0.0, 208.0, 255.0, 144.0, 31.0, 112.0, 0.0, 0.0, 0.0, 1.6945969251494768E9, 0.0, 2023-09-13 11:22:05.149
199.0, -39.830808619357185, 187500.0, 187500.0, 187500.0, 187500.0, 187500.0, 187500.0, 187500.0, 0.026000000000000002, -0.014, 1.006, 192.0, 0.0, 0.0, 0.0, 0.0, 0.0, 0.0, 0.0, 0.0, 0.0, 1.6945969251495466E9, 0.0, 2023-09-13 11:22:05.149
200.0, -34.91342483918963, 187500.0, 187500.0, 187500.0, 187500.0, 187500.0, 187500.0, 187500.0, 0.026000000000000002, -0.014, 1.006, 192.0, 0.0, 0.0, 0.0, 0.0, 0.0, 0.0, 0.0, 0.0, 0.0, 1.6945969251496243E9, 0.0, 2023-09-13 11:22:05.149
201.0, -16.249718219008233, 187500.0, 187500.0, 187500.0, 187500.0, 187500.0, 187500.0, 187500.0, 0.026000000000000002, -0.014, 1.006, 192.0, 0.0, 0.0, 0.0, 0.0, 0.0, 0.0, 0.0, 0.0, 0.0, 1.6945969251497037E9, 0.0, 2023-09-13 11:22:05.149
202.0, -11.80172107240213, 187500.0, 187500.0, 187500.0, 187500.0, 187500.0, 187500.0, 187500.0, 0.026000000000000002, -0.014, 1.006, 192.0, 0.0, 0.0, 0.0, 0.0, 0.0, 0.0, 0.0, 0.0, 0.0, 1.6945969251497855E9, 0.0, 2023-09-13 11:22:05.149
203.0, -11.600555372304365, 187500.0, 187500.0, 187500.0, 187500.0, 187500.0, 187500.0, 187500.0, 0.026000000000000002, -0.014, 1.006, 192.0, 0.0, 0.0, 0.0, 0.0, 0.0, 0.0, 0.0, 0.0, 0.0, 1.6945969251498353E9, 0.0, 2023-09-13 11:22:05.149
204.0, -16.58499438583784, 187500.0, 187500.0, 187500.0, 187500.0, 187500.0, 187500.0, 187500.0, 0.026000000000000002, -0.014, 1.006, 192.0, 0.0, 0.0, 0.0, 0.0, 0.0, 0.0, 0.0, 0.0, 0.0, 1.6945969251498785E9, 0.0, 2023-09-13 11:22:05.149
205.0, -35.18164577265332, 187500.0, 187500.0, 187500.0, 187500.0, 187500.0, 187500.0, 187500.0, 0.026000000000000002, -0.014, 1.006, 192.0, 0.0, 0.0, 0.0, 0.0, 0.0, 0.0, 0.0, 0.0, 0.0, 1.694596925150138E9, 0.0, 2023-09-13 11:22:05.150
206.0, -39.562587685893504, 187500.0, 187500.0, 187500.0, 187500.0, 187500.0, 187500.0, 187500.0, 0.026000000000000002, -0.014, 1.006, 192.0, 0.0, 0.0, 0.0, 0.0, 0.0, 0.0, 0.0, 0.0, 0.0, 1.6945969251502428E9, 0.0, 2023-09-13 11:22:05.150
207.0, -39.47318070807227, 187500.0, 187500.0, 187500.0, 187500.0, 187500.0, 187500.0, 187500.0, 0.026000000000000002, -0.014, 1.006, 192.0, 0.0, 0.0, 0.0, 0.0, 0.0, 0.0, 0.0, 0.0, 0.0, 1.694596925150338E9, 0.0, 2023-09-13 11:22:05.150
208.0, -34.5110934389941, 187500.0, 187500.0, 187500.0, 187500.0, 187500.0, 187500.0, 187500.0, 0.026000000000000002, -0.006, 1.006, 192.0, 0.0, 208.0, 255.0, 208.0, 31.0, 112.0, 0.0, 0.0, 0.0, 1.694596925150406E9, 0.0, 2023-09-13 11:22:05.150
209.0, -15.75797984099148, 187500.0, 187500.0, 187500.0, 187500.0, 187500.0, 187500.0, 187500.0, 0.026000000000000002, -0.006, 1.006, 192.0, 0.0, 0.0, 0.0, 0.0, 0.0, 0.0, 0.0, 0.0, 0.0, 1.69459692515046E9, 0.0, 2023-09-13 11:22:05.150
210.0, -11.444093161117216, 187500.0, 187500.0, 187500.0, 187500.0, 187500.0, 187500.0, 187500.0, 0.026000000000000002, -0.006, 1.006, 192.0, 0.0, 0.0, 0.0, 0.0, 0.0, 0.0, 0.0, 0.0, 0.0, 1.6945969251505067E9, 0.0, 2023-09-13 11:22:05.150
211.0, -11.555851883393752, 187500.0, 187500.0, 187500.0, 187500.0, 187500.0, 187500.0, 187500.0, 0.026000000000000002, -0.006, 1.006, 192.0, 0.0, 0.0, 0.0, 0.0, 0.0, 0.0, 0.0, 0.0, 0.0, 1.694596925150543E9, 0.0, 2023-09-13 11:22:05.150
212.0, -16.67440136365907, 187500.0, 187500.0, 187500.0, 187500.0, 187500.0, 187500.0, 187500.0, 0.026000000000000002, -0.006, 1.006, 192.0, 0.0, 0.0, 0.0, 0.0, 0.0, 0.0, 0.0, 0.0, 0.0, 1.6945969251505818E9, 0.0, 2023-09-13 11:22:05.150
213.0, -35.338107983840466, 187500.0, 187500.0, 187500.0, 187500.0, 187500.0, 187500.0, 187500.0, 0.026000000000000002, -0.006, 1.006, 192.0, 0.0, 0.0, 0.0, 0.0, 0.0, 0.0, 0.0, 0.0, 0.0, 1.6945969251506348E9, 0.0, 2023-09-13 11:22:05.150
214.0, -39.294366752429816, 187500.0, 187500.0, 187500.0, 187500.0, 187500.0, 187500.0, 187500.0, 0.026000000000000002, -0.006, 1.006, 192.0, 0.0, 0.0, 0.0, 0.0, 0.0, 0.0, 0.0, 0.0, 0.0, 1.6945969251506965E9, 0.0, 2023-09-13 11:22:05.150
215.0, -39.47318070807227, 187500.0, 187500.0, 187500.0, 187500.0, 187500.0, 187500.0, 187500.0, 0.026000000000000002, -0.006, 1.006, 192.0, 0.0, 0.0, 0.0, 0.0, 0.0, 0.0, 0.0, 0.0, 0.0, 1.6945969251507528E9, 0.0, 2023-09-13 11:22:05.150
216.0, -34.75696262800248, 187500.0, 187500.0, 187500.0, 187500.0, 187500.0, 187500.0, 187500.0, 0.026000000000000002, -0.006, 1.006, 192.0, 0.0, 0.0, 0.0, 0.0, 0.0, 0.0, 0.0, 0.0, 0.0, 1.6945969251507952E9, 0.0, 2023-09-13 11:22:05.150
217.0, -15.914442052178629, 187500.0, 187500.0, 187500.0, 187500.0, 187500.0, 187500.0, 187500.0, 0.026000000000000002, -0.006, 1.006, 192.0, 0.0, 0.0, 0.0, 0.0, 0.0, 0.0, 0.0, 0.0, 0.0, 1.6945969251508367E9, 0.0, 2023-09-13 11:22:05.150
218.0, -11.198223972108838, 187500.0, 187500.0, 187500.0, 187500.0, 187500.0, 187500.0, 187500.0, 0.032, -0.01, 1.008, 192.0, 1.0, 0.0, 255.0, 176.0, 31.0, 128.0, 0.0, 0.0, 0.0, 1.6945969251508868E9, 0.0, 2023-09-13 11:22:05.150
219.0, -11.153520483198225, 187500.0, 187500.0, 187500.0, 187500.0, 187500.0, 187500.0, 187500.0, 0.032, -0.01, 1.008, 192.0, 0.0, 0.0, 0.0, 0.0, 0.0, 0.0, 0.0, 0.0, 0.0, 1.694596925150936E9, 0.0, 2023-09-13 11:22:05.150
220.0, -16.450883919105998, 187500.0, 187500.0, 187500.0, 187500.0, 187500.0, 187500.0, 187500.0, 0.032, -0.01, 1.008, 192.0, 0.0, 0.0, 0.0, 0.0, 0.0, 0.0, 0.0, 0.0, 0.0, 1.6945969251509812E9, 0.0, 2023-09-13 11:22:05.150
221.0, -35.472218450572306, 187500.0, 187500.0, 187500.0, 187500.0, 187500.0, 187500.0, 187500.0, 0.032, -0.01, 1.008, 192.0, 0.0, 0.0, 0.0, 0.0, 0.0, 0.0, 0.0, 0.0, 0.0, 1.694596925151126E9, 0.0, 2023-09-13 11:22:05.151
222.0, -39.47318070807227, 187500.0, 187500.0, 187500.0, 187500.0, 187500.0, 187500.0, 187500.0, 0.032, -0.01, 1.008, 192.0, 0.0, 0.0, 0.0, 0.0, 0.0, 0.0, 0.0, 0.0, 0.0, 1.6945969251511717E9, 0.0, 2023-09-13 11:22:05.151
223.0, -39.49553245252758, 187500.0, 187500.0, 187500.0, 187500.0, 187500.0, 187500.0, 187500.0, 0.032, -0.01, 1.008, 192.0, 0.0, 0.0, 0.0, 0.0, 0.0, 0.0, 0.0, 0.0, 0.0, 1.6945969251512125E9, 0.0, 2023-09-13 11:22:05.151
224.0, -34.98048007255555, 187500.0, 187500.0, 187500.0, 187500.0, 187500.0, 187500.0, 187500.0, 0.032, -0.01, 1.008, 192.0, 0.0, 0.0, 0.0, 0.0, 0.0, 0.0, 0.0, 0.0, 0.0, 1.6945969251512516E9, 0.0, 2023-09-13 11:22:05.151
225.0, -16.048552518910473, 187500.0, 187500.0, 187500.0, 187500.0, 187500.0, 187500.0, 187500.0, 0.032, -0.01, 1.008, 192.0, 0.0, 0.0, 0.0, 0.0, 0.0, 0.0, 0.0, 0.0, 0.0, 1.694596925151291E9, 0.0, 2023-09-13 11:22:05.151
226.0, -11.33233443884068, 187500.0, 187500.0, 187500.0, 187500.0, 187500.0, 187500.0, 187500.0, 0.032, -0.01, 1.008, 192.0, 0.0, 0.0, 0.0, 0.0, 0.0, 0.0, 0.0, 0.0, 0.0, 1.6945969251513302E9, 0.0, 2023-09-13 11:22:05.151
227.0, -11.48879665002783, 187500.0, 187500.0, 187500.0, 187500.0, 187500.0, 187500.0, 187500.0, 0.032, -0.01, 1.008, 192.0, 0.0, 0.0, 0.0, 0.0, 0.0, 0.0, 0.0, 0.0, 0.0, 1.6945969256261709E9, 0.0, 2023-09-13 11:22:05.626
228.0, -16.42853217465069, 187500.0, 187500.0, 187500.0, 187500.0, 187500.0, 187500.0, 187500.0, 0.034, -0.006, 1.002, 192.0, 1.0, 16.0, 255.0, 208.0, 31.0, 80.0, 0.0, 0.0, 0.0, 1.6945969256263762E9, 0.0, 2023-09-13 11:22:05.626
229.0, -34.91342483918963, 187500.0, 187500.0, 187500.0, 187500.0, 187500.0, 187500.0, 187500.0, 0.034, -0.006, 1.002, 192.0, 0.0, 0.0, 0.0, 0.0, 0.0, 0.0, 0.0, 0.0, 0.0, 1.6945969256264684E9, 0.0, 2023-09-13 11:22:05.626
230.0, -39.160256285697976, 187500.0, 187500.0, 187500.0, 187500.0, 187500.0, 187500.0, 187500.0, 0.034, -0.006, 1.002, 192.0, 0.0, 0.0, 0.0, 0.0, 0.0, 0.0, 0.0, 0.0, 0.0, 1.6945969256265433E9, 0.0, 2023-09-13 11:22:05.626
231.0, -39.629642919259425, 187500.0, 187500.0, 187500.0, 187500.0, 187500.0, 187500.0, 187500.0, 0.034, -0.006, 1.002, 192.0, 0.0, 0.0, 0.0, 0.0, 0.0, 0.0, 0.0, 0.0, 0.0, 1.6945969256266177E9, 0.0, 2023-09-13 11:22:05.626
232.0, -34.77931437245779, 187500.0, 187500.0, 187500.0, 187500.0, 187500.0, 187500.0, 187500.0, 0.034, -0.006, 1.002, 192.0, 0.0, 0.0, 0.0, 0.0, 0.0, 0.0, 0.0, 0.0, 0.0, 1.6945969256266963E9, 0.0, 2023-09-13 11:22:05.626
233.0, -16.026200774455162, 187500.0, 187500.0, 187500.0, 187500.0, 187500.0, 187500.0, 187500.0, 0.034, -0.006, 1.002, 192.0, 0.0, 0.0, 0.0, 0.0, 0.0, 0.0, 0.0, 0.0, 0.0, 1.6945969256267707E9, 0.0, 2023-09-13 11:22:05.626
234.0, -11.444093161117216, 187500.0, 187500.0, 187500.0, 187500.0, 187500.0, 187500.0, 187500.0, 0.034, -0.006, 1.002, 192.0, 0.0, 0.0, 0.0, 0.0, 0.0, 0.0, 0.0, 0.0, 0.0, 1.6945969256268418E9, 0.0, 2023-09-13 11:22:05.626
235.0, -11.466444905572523, 187500.0, 187500.0, 187500.0, 187500.0, 187500.0, 187500.0, 187500.0, 0.034, -0.006, 1.002, 192.0, 0.0, 0.0, 0.0, 0.0, 0.0, 0.0, 0.0, 0.0, 0.0, 1.694596925626933E9, 0.0, 2023-09-13 11:22:05.626
236.0, -16.763808341480296, 187500.0, 187500.0, 187500.0, 187500.0, 187500.0, 187500.0, 187500.0, 0.034, -0.006, 1.002, 192.0, 0.0, 0.0, 0.0, 0.0, 0.0, 0.0, 0.0, 0.0, 0.0, 1.6945969256273904E9, 0.0, 2023-09-13 11:22:05.627
237.0, -35.673384150670074, 187500.0, 187500.0, 187500.0, 187500.0, 187500.0, 187500.0, 187500.0, 0.034, -0.006, 1.002, 192.0, 0.0, 0.0, 0.0, 0.0, 0.0, 0.0, 0.0, 0.0, 0.0, 1.694596925627437E9, 0.0, 2023-09-13 11:22:05.627
238.0, -39.65199466371473, 187500.0, 187500.0, 187500.0, 187500.0, 187500.0, 187500.0, 187500.0, 0.028, -0.008, 1.002, 192.0, 0.0, 224.0, 255.0, 192.0, 31.0, 80.0, 0.0, 0.0, 0.0, 1.694596925627478E9, 0.0, 2023-09-13 11:22:05.627
239.0, -39.67434640817004, 187500.0, 187500.0, 187500.0, 187500.0, 187500.0, 187500.0, 187500.0, 0.028, -0.008, 1.002, 192.0, 0.0, 0.0, 0.0, 0.0, 0.0, 0.0, 0.0, 0.0, 0.0, 1.6945969256275237E9, 0.0, 2023-09-13 11:22:05.627
240.0, -34.77931437245779, 187500.0, 187500.0, 187500.0, 187500.0, 187500.0, 187500.0, 187500.0, 0.028, -0.008, 1.002, 192.0, 0.0, 0.0, 0.0, 0.0, 0.0, 0.0, 0.0, 0.0, 0.0, 1.6945969256275656E9, 0.0, 2023-09-13 11:22:05.627
241.0, -15.981497285544549, 187500.0, 187500.0, 187500.0, 187500.0, 187500.0, 187500.0, 187500.0, 0.028, -0.008, 1.002, 192.0, 0.0, 0.0, 0.0, 0.0, 0.0, 0.0, 0.0, 0.0, 0.0, 1.6945969256276088E9, 0.0, 2023-09-13 11:22:05.627
242.0, -11.757017583491516, 187500.0, 187500.0, 187500.0, 187500.0, 187500.0, 187500.0, 187500.0, 0.028, -0.008, 1.002, 192.0, 0.0, 0.0, 0.0, 0.0, 0.0, 0.0, 0.0, 0.0, 0.0, 1.6945969256276555E9, 0.0, 2023-09-13 11:22:05.627
243.0, -11.64525886121498, 187500.0, 187500.0, 187500.0, 187500.0, 187500.0, 187500.0, 187500.0, 0.028, -0.008, 1.002, 192.0, 0.0, 0.0, 0.0, 0.0, 0.0, 0.0, 0.0, 0.0, 0.0, 1.6945969256276965E9, 0.0, 2023-09-13 11:22:05.627
244.0, -16.540290896927225, 187500.0, 187500.0, 187500.0, 187500.0, 187500.0, 187500.0, 187500.0, 0.028, -0.008, 1.002, 192.0, 0.0, 0.0, 0.0, 0.0, 0.0, 0.0, 0.0, 0.0, 0.0, 1.6945969256277397E9, 0.0, 2023-09-13 11:22:05.627
245.0, -35.025183561466164, 187500.0, 187500.0, 187500.0, 187500.0, 187500.0, 187500.0, 187500.0, 0.028, -0.008, 1.002, 192.0, 0.0, 0.0, 0.0, 0.0, 0.0, 0.0, 0.0, 0.0, 0.0, 1.6945969256277783E9, 0.0, 2023-09-13 11:22:05.627
246.0, -39.67434640817004, 187500.0, 187500.0, 187500.0, 187500.0, 187500.0, 187500.0, 187500.0, 0.028, -0.008, 1.002, 192.0, 0.0, 0.0, 0.0, 0.0, 0.0, 0.0, 0.0, 0.0, 0.0, 1.6945969256278205E9, 0.0, 2023-09-13 11:22:05.627
247.0, -39.74140164153596, 187500.0, 187500.0, 187500.0, 187500.0, 187500.0, 187500.0, 187500.0, 0.028, -0.008, 1.002, 192.0, 0.0, 0.0, 0.0, 0.0, 0.0, 0.0, 0.0, 0.0, 0.0, 1.69459692562788E9, 0.0, 2023-09-13 11:22:05.627
248.0, -34.73461088354718, 187500.0, 187500.0, 187500.0, 187500.0, 187500.0, 187500.0, 187500.0, 0.032, -0.01, 1.006, 192.0, 1.0, 0.0, 255.0, 176.0, 31.0, 112.0, 0.0, 0.0, 0.0, 1.694596925627967E9, 0.0, 2023-09-13 11:22:05.627
249.0, -16.115607752276393, 187500.0, 187500.0, 187500.0, 187500.0, 187500.0, 187500.0, 187500.0, 0.032, -0.01, 1.006, 192.0, 0.0, 0.0, 0.0, 0.0, 0.0, 0.0, 0.0, 0.0, 0.0, 1.694596925628018E9, 0.0, 2023-09-13 11:22:05.628
250.0, -11.444093161117216, 187500.0, 187500.0, 187500.0, 187500.0, 187500.0, 187500.0, 187500.0, 0.032, -0.01, 1.006, 192.0, 0.0, 0.0, 0.0, 0.0, 0.0, 0.0, 0.0, 0.0, 0.0, 1.6945969256281743E9, 0.0, 2023-09-13 11:22:05.628
251.0, -11.511148394483138, 187500.0, 187500.0, 187500.0, 187500.0, 187500.0, 187500.0, 187500.0, 0.032, -0.01, 1.006, 192.0, 0.0, 0.0, 0.0, 0.0, 0.0, 0.0, 0.0, 0.0, 0.0, 1.694596925628498E9, 0.0, 2023-09-13 11:22:05.628
252.0, -16.60734613029315, 187500.0, 187500.0, 187500.0, 187500.0, 187500.0, 187500.0, 187500.0, 0.032, -0.01, 1.006, 192.0, 0.0, 0.0, 0.0, 0.0, 0.0, 0.0, 0.0, 0.0, 0.0, 1.6945969256285536E9, 0.0, 2023-09-13 11:22:05.628
253.0, -35.31575623938516, 187500.0, 187500.0, 187500.0, 187500.0, 187500.0, 187500.0, 187500.0, 0.032, -0.01, 1.006, 192.0, 0.0, 0.0, 0.0, 0.0, 0.0, 0.0, 0.0, 0.0, 0.0, 1.6945969256286037E9, 0.0, 2023-09-13 11:22:05.628
254.0, -39.02614581896613, 187500.0, 187500.0, 187500.0, 187500.0, 187500.0, 187500.0, 187500.0, 0.032, -0.01, 1.006, 192.0, 0.0, 0.0, 0.0, 0.0, 0.0, 0.0, 0.0, 0.0, 0.0, 1.6945969256286583E9, 0.0, 2023-09-13 11:22:05.628
255.0, -39.11555279678736, 187500.0, 187500.0, 187500.0, 187500.0, 187500.0, 187500.0, 187500.0, 0.032, -0.01, 1.006, 192.0, 0.0, 0.0, 0.0, 0.0, 0.0, 0.0, 0.0, 0.0, 0.0, 1.6945969256287396E9, 0.0, 2023-09-13 11:22:05.628
0.0, -34.53344518344941, 187500.0, 187500.0, 187500.0, 187500.0, 187500.0, 187500.0, 187500.0, 0.032, -0.01, 1.006, 192.0, 0.0, 0.0, 0.0, 0.0, 0.0, 0.0, 0.0, 0.0, 0.0, 1.6945969256288345E9, 0.0, 2023-09-13 11:22:05.628
1.0, -15.869738563268015, 187500.0, 187500.0, 187500.0, 187500.0, 187500.0, 187500.0, 187500.0, 0.032, -0.01, 1.006, 192.0, 0.0, 0.0, 0.0, 0.0, 0.0, 0.0, 0.0, 0.0, 0.0, 1.6945969256288996E9, 0.0, 2023-09-13 11:22:05.628
2.0, -11.779369327946823, 187500.0, 187500.0, 187500.0, 187500.0, 187500.0, 187500.0, 187500.0, 0.03, -0.006, 1.006, 192.0, 0.0, 240.0, 255.0, 208.0, 31.0, 112.0, 0.0, 0.0, 0.0, 1.694596925628945E9, 0.0, 2023-09-13 11:22:05.628
3.0, -11.309982694385374, 187500.0, 187500.0, 187500.0, 187500.0, 187500.0, 187500.0, 187500.0, 0.03, -0.006, 1.006, 192.0, 0.0, 0.0, 0.0, 0.0, 0.0, 0.0, 0.0, 0.0, 0.0, 1.6945969256289945E9, 0.0, 2023-09-13 11:22:05.628
4.0, -16.450883919105998, 187500.0, 187500.0, 187500.0, 187500.0, 187500.0, 187500.0, 187500.0, 0.03, -0.006, 1.006, 192.0, 0.0, 0.0, 0.0, 0.0, 0.0, 0.0, 0.0, 0.0, 0.0, 1.6945969256290443E9, 0.0, 2023-09-13 11:22:05.629
5.0, -35.06988705037678, 187500.0, 187500.0, 187500.0, 187500.0, 187500.0, 187500.0, 187500.0, 0.03, -0.006, 1.006, 192.0, 0.0, 0.0, 0.0, 0.0, 0.0, 0.0, 0.0, 0.0, 0.0, 1.6945969256290877E9, 0.0, 2023-09-13 11:22:05.629
6.0, -39.38377373025104, 187500.0, 187500.0, 187500.0, 187500.0, 187500.0, 187500.0, 187500.0, 0.03, -0.006, 1.006, 192.0, 0.0, 0.0, 0.0, 0.0, 0.0, 0.0, 0.0, 0.0, 0.0, 1.694596925629131E9, 0.0, 2023-09-13 11:22:05.629
7.0, -39.696698152625345, 187500.0, 187500.0, 187500.0, 187500.0, 187500.0, 187500.0, 187500.0, 0.03, -0.006, 1.006, 192.0, 0.0, 0.0, 0.0, 0.0, 0.0, 0.0, 0.0, 0.0, 0.0, 1.6945969256291728E9, 0.0, 2023-09-13 11:22:05.629
8.0, -34.71225913909187, 187500.0, 187500.0, 187500.0, 187500.0, 187500.0, 187500.0, 187500.0, 0.03, -0.006, 1.006, 192.0, 0.0, 0.0, 0.0, 0.0, 0.0, 0.0, 0.0, 0.0, 0.0, 1.694596925629224E9, 0.0, 2023-09-13 11:22:05.629
