%OpenBCI Raw EXG Data
%Number of channels = 8
%Sample Rate = 250 Hz
%Board = OpenBCI_GUI$BoardCytonSerial
Sample Index, EXG Channel 0, EXG Channel 1, EXG Channel 2, EXG Channel 3, EXG Channel 4, EXG Channel 5, EXG Channel 6, EXG Channel 7, Accel Channel 0, Accel Channel 1, Accel Channel 2, Other, Other, Other, Other, Other, Other, Other, Analog Channel 0, Analog Channel 1, Analog Channel 2, Timestamp, Other, Timestamp (Formatted)
0.0, 0.0, 0.0, 0.0, 0.0, 0.0, 0.0, 0.0, 0.0, 0.022, -0.008, 1.01, 192.0, 0.0, 176.0, 255.0, 192.0, 31.0, 144.0, 0.0, 0.0, 0.0, 1.6946007059745944E9, 0.0, 2023-09-13 12:25:05.974
1.0, 125.3262311609067, 187500.0, 187500.0, 187500.0, 187500.0, 187500.0, 187500.0, 187500.0, 0.022, -0.008, 1.01, 192.0, 0.0, 0.0, 0.0, 0.0, 0.0, 0.0, 0.0, 0.0, 0.0, 1.6946007064564788E9, 0.0, 2023-09-13 12:25:06.456
2.0, 261.56011361600326, 187500.0, 187500.0, 187500.0, 187500.0, 187500.0, 187500.0, 187500.0, 0.022, -0.008, 1.01, 192.0, 0.0, 0.0, 0.0, 0.0, 0.0, 0.0, 0.0, 0.0, 0.0, 1.6946007064566443E9, 0.0, 2023-09-13 12:25:06.456
3.0, 239.07425869396434, 187500.0, 187500.0, 187500.0, 187500.0, 187500.0, 187500.0, 187500.0, 0.022, -0.008, 1.01, 192.0, 0.0, 0.0, 0.0, 0.0, 0.0, 0.0, 0.0, 0.0, 0.0, 1.694600706456714E9, 0.0, 2023-09-13 12:25:06.456
4.0, 73.69370146914738, 187500.0, 187500.0, 187500.0, 187500.0, 187500.0, 187500.0, 187500.0, 0.022, -0.008, 1.01, 192.0, 0.0, 0.0, 0.0, 0.0, 0.0, 0.0, 0.0, 0.0, 0.0, 1.694600706456772E9, 0.0, 2023-09-13 12:25:06.456
5.0, -410.06510377706337, 187500.0, 187500.0, 187500.0, 187500.0, 187500.0, 187500.0, 187500.0, 0.022, -0.008, 1.01, 192.0, 0.0, 0.0, 0.0, 0.0, 0.0, 0.0, 0.0, 0.0, 0.0, 1.6946007064568317E9, 0.0, 2023-09-13 12:25:06.456
6.0, -489.9949419492414, 187500.0, 187500.0, 187500.0, 187500.0, 187500.0, 187500.0, 187500.0, 0.022, -0.008, 1.01, 192.0, 0.0, 0.0, 0.0, 0.0, 0.0, 0.0, 0.0, 0.0, 0.0, 1.6946007064568872E9, 0.0, 2023-09-13 12:25:06.456
7.0, -472.29236034063825, 187500.0, 187500.0, 187500.0, 187500.0, 187500.0, 187500.0, 187500.0, 0.022, -0.008, 1.01, 192.0, 0.0, 0.0, 0.0, 0.0, 0.0, 0.0, 0.0, 0.0, 0.0, 1.6946007064569407E9, 0.0, 2023-09-13 12:25:06.456
8.0, -367.529734078614, 187500.0, 187500.0, 187500.0, 187500.0, 187500.0, 187500.0, 187500.0, 0.028, -0.006, 1.006, 192.0, 0.0, 224.0, 255.0, 208.0, 31.0, 112.0, 0.0, 0.0, 0.0, 1.694600706456993E9, 0.0, 2023-09-13 12:25:06.456
9.0, 85.13779463026461, 187500.0, 187500.0, 187500.0, 187500.0, 187500.0, 187500.0, 187500.0, 0.028, -0.006, 1.006, 192.0, 0.0, 0.0, 0.0, 0.0, 0.0, 0.0, 0.0, 0.0, 0.0, 1.6946007064570477E9, 0.0, 2023-09-13 12:25:06.457
10.0, 205.94897341119926, 187500.0, 187500.0, 187500.0, 187500.0, 187500.0, 187500.0, 187500.0, 0.028, -0.006, 1.006, 192.0, 0.0, 0.0, 0.0, 0.0, 0.0, 0.0, 0.0, 0.0, 0.0, 1.6946007064570985E9, 0.0, 2023-09-13 12:25:06.457
11.0, 247.63497682034694, 187500.0, 187500.0, 187500.0, 187500.0, 187500.0, 187500.0, 187500.0, 0.028, -0.006, 1.006, 192.0, 0.0, 0.0, 0.0, 0.0, 0.0, 0.0, 0.0, 0.0, 0.0, 1.6946007064571493E9, 0.0, 2023-09-13 12:25:06.457
12.0, 136.88208304430046, 187500.0, 187500.0, 187500.0, 187500.0, 187500.0, 187500.0, 187500.0, 0.028, -0.006, 1.006, 192.0, 0.0, 0.0, 0.0, 0.0, 0.0, 0.0, 0.0, 0.0, 0.0, 1.694600706457202E9, 0.0, 2023-09-13 12:25:06.457
13.0, -380.20317318477316, 187500.0, 187500.0, 187500.0, 187500.0, 187500.0, 187500.0, 187500.0, 0.028, -0.006, 1.006, 192.0, 0.0, 0.0, 0.0, 0.0, 0.0, 0.0, 0.0, 0.0, 0.0, 1.6946007064572535E9, 0.0, 2023-09-13 12:25:06.457
14.0, -528.685811601378, 187500.0, 187500.0, 187500.0, 187500.0, 187500.0, 187500.0, 187500.0, 0.028, -0.006, 1.006, 192.0, 0.0, 0.0, 0.0, 0.0, 0.0, 0.0, 0.0, 0.0, 0.0, 1.6946007064572997E9, 0.0, 2023-09-13 12:25:06.457
15.0, -529.5351778906796, 187500.0, 187500.0, 187500.0, 187500.0, 187500.0, 187500.0, 187500.0, 0.028, -0.006, 1.006, 192.0, 0.0, 0.0, 0.0, 0.0, 0.0, 0.0, 0.0, 0.0, 0.0, 1.6946007064573529E9, 0.0, 2023-09-13 12:25:06.457
16.0, -365.94276022228723, 187500.0, 187500.0, 187500.0, 187500.0, 187500.0, 187500.0, 187500.0, 0.028, -0.006, 1.006, 192.0, 0.0, 0.0, 0.0, 0.0, 0.0, 0.0, 0.0, 0.0, 0.0, 1.6946007064579058E9, 0.0, 2023-09-13 12:25:06.457
17.0, 146.2698157155294, 187500.0, 187500.0, 187500.0, 187500.0, 187500.0, 187500.0, 187500.0, 0.026000000000000002, -0.01, 1.01, 192.0, 0.0, 208.0, 255.0, 176.0, 31.0, 144.0, 0.0, 0.0, 0.0, 1.6946007064579442E9, 0.0, 2023-09-13 12:25:06.457
18.0, 238.9624999716878, 187500.0, 187500.0, 187500.0, 187500.0, 187500.0, 187500.0, 187500.0, 0.026000000000000002, -0.01, 1.01, 192.0, 0.0, 0.0, 0.0, 0.0, 0.0, 0.0, 0.0, 0.0, 0.0, 1.694600706457976E9, 0.0, 2023-09-13 12:25:06.457
19.0, 202.70797046517976, 187500.0, 187500.0, 187500.0, 187500.0, 187500.0, 187500.0, 187500.0, 0.026000000000000002, -0.01, 1.01, 192.0, 0.0, 0.0, 0.0, 0.0, 0.0, 0.0, 0.0, 0.0, 0.0, 1.6946007064580057E9, 0.0, 2023-09-13 12:25:06.458
20.0, 80.75685271702442, 187500.0, 187500.0, 187500.0, 187500.0, 187500.0, 187500.0, 187500.0, 0.026000000000000002, -0.01, 1.01, 192.0, 0.0, 0.0, 0.0, 0.0, 0.0, 0.0, 0.0, 0.0, 0.0, 1.6946007064580345E9, 0.0, 2023-09-13 12:25:06.458
21.0, -377.5656673390469, 187500.0, 187500.0, 187500.0, 187500.0, 187500.0, 187500.0, 187500.0, 0.026000000000000002, -0.01, 1.01, 192.0, 0.0, 0.0, 0.0, 0.0, 0.0, 0.0, 0.0, 0.0, 0.0, 1.6946007064580624E9, 0.0, 2023-09-13 12:25:06.458
22.0, -466.41385154889247, 187500.0, 187500.0, 187500.0, 187500.0, 187500.0, 187500.0, 187500.0, 0.026000000000000002, -0.01, 1.01, 192.0, 0.0, 0.0, 0.0, 0.0, 0.0, 0.0, 0.0, 0.0, 0.0, 1.6946007064580913E9, 0.0, 2023-09-13 12:25:06.458
23.0, -491.93954371685317, 187500.0, 187500.0, 187500.0, 187500.0, 187500.0, 187500.0, 187500.0, 0.026000000000000002, -0.01, 1.01, 192.0, 0.0, 0.0, 0.0, 0.0, 0.0, 0.0, 0.0, 0.0, 0.0, 1.6946007064581306E9, 0.0, 2023-09-13 12:25:06.458
24.0, -407.6511153758902, 187500.0, 187500.0, 187500.0, 187500.0, 187500.0, 187500.0, 187500.0, 0.026000000000000002, -0.01, 1.01, 192.0, 0.0, 0.0, 0.0, 0.0, 0.0, 0.0, 0.0, 0.0, 0.0, 1.6946007064581575E9, 0.0, 2023-09-13 12:25:06.458
25.0, 88.55761153192658, 187500.0, 187500.0, 187500.0, 187500.0, 187500.0, 187500.0, 187500.0, 0.026000000000000002, -0.01, 1.01, 192.0, 0.0, 0.0, 0.0, 0.0, 0.0, 0.0, 0.0, 0.0, 0.0, 1.6946007064581852E9, 0.0, 2023-09-13 12:25:06.458
26.0, 237.66609879327999, 187500.0, 187500.0, 187500.0, 187500.0, 187500.0, 187500.0, 187500.0, 0.026000000000000002, -0.01, 1.01, 192.0, 0.0, 0.0, 0.0, 0.0, 0.0, 0.0, 0.0, 0.0, 0.0, 1.6946007064582121E9, 0.0, 2023-09-13 12:25:06.458
27.0, 264.3987851618272, 187500.0, 187500.0, 187500.0, 187500.0, 187500.0, 187500.0, 187500.0, 0.028, -0.014, 1.006, 192.0, 0.0, 224.0, 255.0, 144.0, 31.0, 112.0, 0.0, 0.0, 0.0, 1.6946007064582388E9, 0.0, 2023-09-13 12:25:06.458
28.0, 112.38457112128391, 187500.0, 187500.0, 187500.0, 187500.0, 187500.0, 187500.0, 187500.0, 0.028, -0.014, 1.006, 192.0, 0.0, 0.0, 0.0, 0.0, 0.0, 0.0, 0.0, 0.0, 0.0, 1.6946007064582667E9, 0.0, 2023-09-13 12:25:06.458
29.0, -409.5733653990466, 187500.0, 187500.0, 187500.0, 187500.0, 187500.0, 187500.0, 187500.0, 0.028, -0.014, 1.006, 192.0, 0.0, 0.0, 0.0, 0.0, 0.0, 0.0, 0.0, 0.0, 0.0, 1.6946007064582934E9, 0.0, 2023-09-13 12:25:06.458
30.0, -525.8694918000093, 187500.0, 187500.0, 187500.0, 187500.0, 187500.0, 187500.0, 187500.0, 0.028, -0.014, 1.006, 192.0, 0.0, 0.0, 0.0, 0.0, 0.0, 0.0, 0.0, 0.0, 0.0, 1.6946007064583197E9, 0.0, 2023-09-13 12:25:06.458
31.0, -489.41379659340345, 187500.0, 187500.0, 187500.0, 187500.0, 187500.0, 187500.0, 187500.0, 0.028, -0.014, 1.006, 192.0, 0.0, 0.0, 0.0, 0.0, 0.0, 0.0, 0.0, 0.0, 0.0, 1.6946007064585683E9, 0.0, 2023-09-13 12:25:06.458
32.0, -347.5472745355695, 187500.0, 187500.0, 187500.0, 187500.0, 187500.0, 187500.0, 187500.0, 0.028, -0.014, 1.006, 192.0, 0.0, 0.0, 0.0, 0.0, 0.0, 0.0, 0.0, 0.0, 0.0, 1.6946007064586058E9, 0.0, 2023-09-13 12:25:06.458
33.0, 121.16880669221959, 187500.0, 187500.0, 187500.0, 187500.0, 187500.0, 187500.0, 187500.0, 0.028, -0.014, 1.006, 192.0, 0.0, 0.0, 0.0, 0.0, 0.0, 0.0, 0.0, 0.0, 0.0, 1.694600706458658E9, 0.0, 2023-09-13 12:25:06.458
34.0, 209.94993566869923, 187500.0, 187500.0, 187500.0, 187500.0, 187500.0, 187500.0, 187500.0, 0.028, -0.014, 1.006, 192.0, 0.0, 0.0, 0.0, 0.0, 0.0, 0.0, 0.0, 0.0, 0.0, 1.6946007064586897E9, 0.0, 2023-09-13 12:25:06.458
35.0, 205.47958677763782, 187500.0, 187500.0, 187500.0, 187500.0, 187500.0, 187500.0, 187500.0, 0.028, -0.014, 1.006, 192.0, 0.0, 0.0, 0.0, 0.0, 0.0, 0.0, 0.0, 0.0, 0.0, 1.6946007064587166E9, 0.0, 2023-09-13 12:25:06.458
36.0, 115.26794615601852, 187500.0, 187500.0, 187500.0, 187500.0, 187500.0, 187500.0, 187500.0, 0.028, -0.014, 1.006, 192.0, 0.0, 0.0, 0.0, 0.0, 0.0, 0.0, 0.0, 0.0, 0.0, 1.6946007064587429E9, 0.0, 2023-09-13 12:25:06.458
37.0, -353.62694902741305, 187500.0, 187500.0, 187500.0, 187500.0, 187500.0, 187500.0, 187500.0, 0.032, -0.014, 1.004, 192.0, 1.0, 0.0, 255.0, 144.0, 31.0, 96.0, 0.0, 0.0, 0.0, 1.6946007064587705E9, 0.0, 2023-09-13 12:25:06.458
38.0, -492.9900757062526, 187500.0, 187500.0, 187500.0, 187500.0, 187500.0, 187500.0, 187500.0, 0.032, -0.014, 1.004, 192.0, 0.0, 0.0, 0.0, 0.0, 0.0, 0.0, 0.0, 0.0, 0.0, 1.6946007064587996E9, 0.0, 2023-09-13 12:25:06.458
39.0, -527.9929075232634, 187500.0, 187500.0, 187500.0, 187500.0, 187500.0, 187500.0, 187500.0, 0.032, -0.014, 1.004, 192.0, 0.0, 0.0, 0.0, 0.0, 0.0, 0.0, 0.0, 0.0, 0.0, 1.6946007064588268E9, 0.0, 2023-09-13 12:25:06.458
40.0, -408.07579852054107, 187500.0, 187500.0, 187500.0, 187500.0, 187500.0, 187500.0, 187500.0, 0.032, -0.014, 1.004, 192.0, 0.0, 0.0, 0.0, 0.0, 0.0, 0.0, 0.0, 0.0, 0.0, 1.6946007064588544E9, 0.0, 2023-09-13 12:25:06.458
41.0, 123.22516718210784, 187500.0, 187500.0, 187500.0, 187500.0, 187500.0, 187500.0, 187500.0, 0.032, -0.014, 1.004, 192.0, 0.0, 0.0, 0.0, 0.0, 0.0, 0.0, 0.0, 0.0, 0.0, 1.6946007064588816E9, 0.0, 2023-09-13 12:25:06.458
42.0, 260.5319333710591, 187500.0, 187500.0, 187500.0, 187500.0, 187500.0, 187500.0, 187500.0, 0.032, -0.014, 1.004, 192.0, 0.0, 0.0, 0.0, 0.0, 0.0, 0.0, 0.0, 0.0, 0.0, 1.694600706458908E9, 0.0, 2023-09-13 12:25:06.458
43.0, 243.23168316265145, 187500.0, 187500.0, 187500.0, 187500.0, 187500.0, 187500.0, 187500.0, 0.032, -0.014, 1.004, 192.0, 0.0, 0.0, 0.0, 0.0, 0.0, 0.0, 0.0, 0.0, 0.0, 1.6946007064589336E9, 0.0, 2023-09-13 12:25:06.458
44.0, 80.77920446147972, 187500.0, 187500.0, 187500.0, 187500.0, 187500.0, 187500.0, 187500.0, 0.032, -0.014, 1.004, 192.0, 0.0, 0.0, 0.0, 0.0, 0.0, 0.0, 0.0, 0.0, 0.0, 1.694600706458967E9, 0.0, 2023-09-13 12:25:06.458
45.0, -415.9436125688091, 187500.0, 187500.0, 187500.0, 187500.0, 187500.0, 187500.0, 187500.0, 0.032, -0.014, 1.004, 192.0, 0.0, 0.0, 0.0, 0.0, 0.0, 0.0, 0.0, 0.0, 0.0, 1.694600706458994E9, 0.0, 2023-09-13 12:25:06.458
46.0, -492.18541290586154, 187500.0, 187500.0, 187500.0, 187500.0, 187500.0, 187500.0, 187500.0, 0.032, -0.014, 1.004, 192.0, 0.0, 0.0, 0.0, 0.0, 0.0, 0.0, 0.0, 0.0, 0.0, 1.6946007064590204E9, 0.0, 2023-09-13 12:25:06.459
47.0, -469.76661321718854, 187500.0, 187500.0, 187500.0, 187500.0, 187500.0, 187500.0, 187500.0, 0.032, -0.012, 1.002, 192.0, 1.0, 0.0, 255.0, 160.0, 31.0, 80.0, 0.0, 0.0, 0.0, 1.694600706459113E9, 0.0, 2023-09-13 12:25:06.459
48.0, -370.45781260225925, 187500.0, 187500.0, 187500.0, 187500.0, 187500.0, 187500.0, 187500.0, 0.032, -0.012, 1.002, 192.0, 0.0, 0.0, 0.0, 0.0, 0.0, 0.0, 0.0, 0.0, 0.0, 1.6946007064591484E9, 0.0, 2023-09-13 12:25:06.459
49.0, 86.4118440642171, 187500.0, 187500.0, 187500.0, 187500.0, 187500.0, 187500.0, 187500.0, 0.032, -0.012, 1.002, 192.0, 0.0, 0.0, 0.0, 0.0, 0.0, 0.0, 0.0, 0.0, 0.0, 1.6946007064591773E9, 0.0, 2023-09-13 12:25:06.459
50.0, 206.10543562238644, 187500.0, 187500.0, 187500.0, 187500.0, 187500.0, 187500.0, 187500.0, 0.032, -0.012, 1.002, 192.0, 0.0, 0.0, 0.0, 0.0, 0.0, 0.0, 0.0, 0.0, 0.0, 1.6946007064592056E9, 0.0, 2023-09-13 12:25:06.459
51.0, 243.20933141819614, 187500.0, 187500.0, 187500.0, 187500.0, 187500.0, 187500.0, 187500.0, 0.032, -0.012, 1.002, 192.0, 0.0, 0.0, 0.0, 0.0, 0.0, 0.0, 0.0, 0.0, 0.0, 1.6946007064592345E9, 0.0, 2023-09-13 12:25:06.459
52.0, 136.18917896618592, 187500.0, 187500.0, 187500.0, 187500.0, 187500.0, 187500.0, 187500.0, 0.032, -0.012, 1.002, 192.0, 0.0, 0.0, 0.0, 0.0, 0.0, 0.0, 0.0, 0.0, 0.0, 1.6946007064592612E9, 0.0, 2023-09-13 12:25:06.459
53.0, -373.6541120593682, 187500.0, 187500.0, 187500.0, 187500.0, 187500.0, 187500.0, 187500.0, 0.032, -0.012, 1.002, 192.0, 0.0, 0.0, 0.0, 0.0, 0.0, 0.0, 0.0, 0.0, 0.0, 1.6946007064592917E9, 0.0, 2023-09-13 12:25:06.459
54.0, -528.2164249678165, 187500.0, 187500.0, 187500.0, 187500.0, 187500.0, 187500.0, 187500.0, 0.032, -0.012, 1.002, 192.0, 0.0, 0.0, 0.0, 0.0, 0.0, 0.0, 0.0, 0.0, 0.0, 1.694600706459319E9, 0.0, 2023-09-13 12:25:06.459
55.0, -527.6129278675232, 187500.0, 187500.0, 187500.0, 187500.0, 187500.0, 187500.0, 187500.0, 0.032, -0.012, 1.002, 192.0, 0.0, 0.0, 0.0, 0.0, 0.0, 0.0, 0.0, 0.0, 0.0, 1.6946007064593475E9, 0.0, 2023-09-13 12:25:06.459
56.0, -368.6026178124688, 187500.0, 187500.0, 187500.0, 187500.0, 187500.0, 187500.0, 187500.0, 0.032, -0.012, 1.002, 192.0, 0.0, 0.0, 0.0, 0.0, 0.0, 0.0, 0.0, 0.0, 0.0, 1.6946007064593756E9, 0.0, 2023-09-13 12:25:06.459
57.0, 140.10073424586466, 187500.0, 187500.0, 187500.0, 187500.0, 187500.0, 187500.0, 187500.0, 0.034, -0.01, 1.006, 192.0, 1.0, 16.0, 255.0, 176.0, 31.0, 112.0, 0.0, 0.0, 0.0, 1.6946007064594052E9, 0.0, 2023-09-13 12:25:06.459
58.0, 240.05773544999786, 187500.0, 187500.0, 187500.0, 187500.0, 187500.0, 187500.0, 187500.0, 0.034, -0.01, 1.006, 192.0, 0.0, 0.0, 0.0, 0.0, 0.0, 0.0, 0.0, 0.0, 0.0, 1.6946007064594352E9, 0.0, 2023-09-13 12:25:06.459
59.0, 207.78181645653444, 187500.0, 187500.0, 187500.0, 187500.0, 187500.0, 187500.0, 187500.0, 0.034, -0.01, 1.006, 192.0, 0.0, 0.0, 0.0, 0.0, 0.0, 0.0, 0.0, 0.0, 0.0, 1.6946007064594648E9, 0.0, 2023-09-13 12:25:06.459
60.0, 81.29329458395179, 187500.0, 187500.0, 187500.0, 187500.0, 187500.0, 187500.0, 187500.0, 0.034, -0.01, 1.006, 192.0, 0.0, 0.0, 0.0, 0.0, 0.0, 0.0, 0.0, 0.0, 0.0, 1.694600706459492E9, 0.0, 2023-09-13 12:25:06.459
61.0, -377.1186324499408, 187500.0, 187500.0, 187500.0, 187500.0, 187500.0, 187500.0, 187500.0, 0.034, -0.01, 1.006, 192.0, 0.0, 0.0, 0.0, 0.0, 0.0, 0.0, 0.0, 0.0, 0.0, 1.6946007064595196E9, 0.0, 2023-09-13 12:25:06.459
62.0, -471.7559184737109, 187500.0, 187500.0, 187500.0, 187500.0, 187500.0, 187500.0, 187500.0, 0.034, -0.01, 1.006, 192.0, 0.0, 0.0, 0.0, 0.0, 0.0, 0.0, 0.0, 0.0, 0.0, 1.694600706459875E9, 0.0, 2023-09-13 12:25:06.459
63.0, -491.38075010547044, 187500.0, 187500.0, 187500.0, 187500.0, 187500.0, 187500.0, 187500.0, 0.034, -0.01, 1.006, 192.0, 0.0, 0.0, 0.0, 0.0, 0.0, 0.0, 0.0, 0.0, 0.0, 1.694600706459936E9, 0.0, 2023-09-13 12:25:06.459
64.0, -400.9008885503875, 187500.0, 187500.0, 187500.0, 187500.0, 187500.0, 187500.0, 187500.0, 0.034, -0.01, 1.006, 192.0, 0.0, 0.0, 0.0, 0.0, 0.0, 0.0, 0.0, 0.0, 0.0, 1.6946007064599876E9, 0.0, 2023-09-13 12:25:06.459
65.0, 85.33896033036237, 187500.0, 187500.0, 187500.0, 187500.0, 187500.0, 187500.0, 187500.0, 0.034, -0.01, 1.006, 192.0, 0.0, 0.0, 0.0, 0.0, 0.0, 0.0, 0.0, 0.0, 0.0, 1.694600706460049E9, 0.0, 2023-09-13 12:25:06.460
66.0, 243.3881453738386, 187500.0, 187500.0, 187500.0, 187500.0, 187500.0, 187500.0, 187500.0, 0.034, -0.01, 1.006, 192.0, 0.0, 0.0, 0.0, 0.0, 0.0, 0.0, 0.0, 0.0, 0.0, 1.6946007064600875E9, 0.0, 2023-09-13 12:25:06.460
67.0, 265.62813110686915, 187500.0, 187500.0, 187500.0, 187500.0, 187500.0, 187500.0, 187500.0, 0.032, -0.004, 1.01, 192.0, 1.0, 0.0, 255.0, 224.0, 31.0, 144.0, 0.0, 0.0, 0.0, 1.6946007064601312E9, 0.0, 2023-09-13 12:25:06.460
68.0, 115.55851883393751, 187500.0, 187500.0, 187500.0, 187500.0, 187500.0, 187500.0, 187500.0, 0.032, -0.004, 1.01, 192.0, 0.0, 0.0, 0.0, 0.0, 0.0, 0.0, 0.0, 0.0, 0.0, 1.694600706460179E9, 0.0, 2023-09-13 12:25:06.460
69.0, -409.61806888795724, 187500.0, 187500.0, 187500.0, 187500.0, 187500.0, 187500.0, 187500.0, 0.032, -0.004, 1.01, 192.0, 0.0, 0.0, 0.0, 0.0, 0.0, 0.0, 0.0, 0.0, 0.0, 1.694600706460228E9, 0.0, 2023-09-13 12:25:06.460
70.0, -524.5507388771462, 187500.0, 187500.0, 187500.0, 187500.0, 187500.0, 187500.0, 187500.0, 0.032, -0.004, 1.01, 192.0, 0.0, 0.0, 0.0, 0.0, 0.0, 0.0, 0.0, 0.0, 0.0, 1.6946007064602776E9, 0.0, 2023-09-13 12:25:06.460
71.0, -490.5760873050794, 187500.0, 187500.0, 187500.0, 187500.0, 187500.0, 187500.0, 187500.0, 0.032, -0.004, 1.01, 192.0, 0.0, 0.0, 0.0, 0.0, 0.0, 0.0, 0.0, 0.0, 0.0, 1.6946007064603279E9, 0.0, 2023-09-13 12:25:06.460
72.0, -345.468562301226, 187500.0, 187500.0, 187500.0, 187500.0, 187500.0, 187500.0, 187500.0, 0.032, -0.004, 1.01, 192.0, 0.0, 0.0, 0.0, 0.0, 0.0, 0.0, 0.0, 0.0, 0.0, 1.6946007064603815E9, 0.0, 2023-09-13 12:25:06.460
73.0, 122.1299317037978, 187500.0, 187500.0, 187500.0, 187500.0, 187500.0, 187500.0, 187500.0, 0.032, -0.004, 1.01, 192.0, 0.0, 0.0, 0.0, 0.0, 0.0, 0.0, 0.0, 0.0, 0.0, 1.6946007064604328E9, 0.0, 2023-09-13 12:25:06.460
74.0, 207.78181645653444, 187500.0, 187500.0, 187500.0, 187500.0, 187500.0, 187500.0, 187500.0, 0.032, -0.004, 1.01, 192.0, 0.0, 0.0, 0.0, 0.0, 0.0, 0.0, 0.0, 0.0, 0.0, 1.6946007064604833E9, 0.0, 2023-09-13 12:25:06.460
75.0, 209.05586589048696, 187500.0, 187500.0, 187500.0, 187500.0, 187500.0, 187500.0, 187500.0, 0.032, -0.004, 1.01, 192.0, 0.0, 0.0, 0.0, 0.0, 0.0, 0.0, 0.0, 0.0, 0.0, 1.6946007064605365E9, 0.0, 2023-09-13 12:25:06.460
76.0, 114.575042077904, 187500.0, 187500.0, 187500.0, 187500.0, 187500.0, 187500.0, 187500.0, 0.032, -0.004, 1.01, 192.0, 0.0, 0.0, 0.0, 0.0, 0.0, 0.0, 0.0, 0.0, 0.0, 1.694600706460588E9, 0.0, 2023-09-13 12:25:06.460
77.0, -350.274187359117, 187500.0, 187500.0, 187500.0, 187500.0, 187500.0, 187500.0, 187500.0, 0.03, -0.008, 1.012, 192.0, 0.0, 240.0, 255.0, 192.0, 31.0, 160.0, 0.0, 0.0, 0.0, 1.6946007064610493E9, 0.0, 2023-09-13 12:25:06.461
78.0, -491.783081505666, 187500.0, 187500.0, 187500.0, 187500.0, 187500.0, 187500.0, 187500.0, 0.03, -0.008, 1.012, 192.0, 0.0, 0.0, 0.0, 0.0, 0.0, 0.0, 0.0, 0.0, 0.0, 1.6946007064611094E9, 0.0, 2023-09-13 12:25:06.461
79.0, -529.9375092908751, 187500.0, 187500.0, 187500.0, 187500.0, 187500.0, 187500.0, 187500.0, 0.03, -0.008, 1.012, 192.0, 0.0, 0.0, 0.0, 0.0, 0.0, 0.0, 0.0, 0.0, 0.0, 1.6946007064611611E9, 0.0, 2023-09-13 12:25:06.461
80.0, -404.7677403411556, 187500.0, 187500.0, 187500.0, 187500.0, 187500.0, 187500.0, 187500.0, 0.03, -0.008, 1.012, 192.0, 0.0, 0.0, 0.0, 0.0, 0.0, 0.0, 0.0, 0.0, 0.0, 1.6946007064612072E9, 0.0, 2023-09-13 12:25:06.461
81.0, 121.28056541449612, 187500.0, 187500.0, 187500.0, 187500.0, 187500.0, 187500.0, 187500.0, 0.03, -0.008, 1.012, 192.0, 0.0, 0.0, 0.0, 0.0, 0.0, 0.0, 0.0, 0.0, 0.0, 1.694600706461282E9, 0.0, 2023-09-13 12:25:06.461
82.0, 263.0800322389641, 187500.0, 187500.0, 187500.0, 187500.0, 187500.0, 187500.0, 187500.0, 0.03, -0.008, 1.012, 192.0, 0.0, 0.0, 0.0, 0.0, 0.0, 0.0, 0.0, 0.0, 0.0, 1.6946007064613292E9, 0.0, 2023-09-13 12:25:06.461
83.0, 245.24334016362909, 187500.0, 187500.0, 187500.0, 187500.0, 187500.0, 187500.0, 187500.0, 0.03, -0.008, 1.012, 192.0, 0.0, 0.0, 0.0, 0.0, 0.0, 0.0, 0.0, 0.0, 0.0, 1.6946007064613707E9, 0.0, 2023-09-13 12:25:06.461
84.0, 80.19805910564175, 187500.0, 187500.0, 187500.0, 187500.0, 187500.0, 187500.0, 187500.0, 0.03, -0.008, 1.012, 192.0, 0.0, 0.0, 0.0, 0.0, 0.0, 0.0, 0.0, 0.0, 0.0, 1.6946007064614284E9, 0.0, 2023-09-13 12:25:06.461
85.0, -409.7521793546891, 187500.0, 187500.0, 187500.0, 187500.0, 187500.0, 187500.0, 187500.0, 0.03, -0.008, 1.012, 192.0, 0.0, 0.0, 0.0, 0.0, 0.0, 0.0, 0.0, 0.0, 0.0, 1.69460070646148E9, 0.0, 2023-09-13 12:25:06.461
86.0, -492.3195233725934, 187500.0, 187500.0, 187500.0, 187500.0, 187500.0, 187500.0, 187500.0, 0.03, -0.008, 1.012, 192.0, 0.0, 0.0, 0.0, 0.0, 0.0, 0.0, 0.0, 0.0, 0.0, 1.6946007064615324E9, 0.0, 2023-09-13 12:25:06.461
87.0, -472.56058127410193, 187500.0, 187500.0, 187500.0, 187500.0, 187500.0, 187500.0, 187500.0, 0.032, -0.006, 1.004, 192.0, 1.0, 0.0, 255.0, 208.0, 31.0, 96.0, 0.0, 0.0, 0.0, 1.694600706461593E9, 0.0, 2023-09-13 12:25:06.461
88.0, -365.8757049889213, 187500.0, 187500.0, 187500.0, 187500.0, 187500.0, 187500.0, 187500.0, 0.032, -0.006, 1.004, 192.0, 0.0, 0.0, 0.0, 0.0, 0.0, 0.0, 0.0, 0.0, 0.0, 1.6946007064616375E9, 0.0, 2023-09-13 12:25:06.461
89.0, 92.89384995625615, 187500.0, 187500.0, 187500.0, 187500.0, 187500.0, 187500.0, 187500.0, 0.032, -0.006, 1.004, 192.0, 0.0, 0.0, 0.0, 0.0, 0.0, 0.0, 0.0, 0.0, 0.0, 1.69460070646168E9, 0.0, 2023-09-13 12:25:06.461
90.0, 204.7196274661574, 187500.0, 187500.0, 187500.0, 187500.0, 187500.0, 187500.0, 187500.0, 0.032, -0.006, 1.004, 192.0, 0.0, 0.0, 0.0, 0.0, 0.0, 0.0, 0.0, 0.0, 0.0, 1.694600706461723E9, 0.0, 2023-09-13 12:25:06.461
91.0, 243.0975726959196, 187500.0, 187500.0, 187500.0, 187500.0, 187500.0, 187500.0, 187500.0, 0.032, -0.006, 1.004, 192.0, 0.0, 0.0, 0.0, 0.0, 0.0, 0.0, 0.0, 0.0, 0.0, 1.6946007064617665E9, 0.0, 2023-09-13 12:25:06.461
92.0, 137.48558014459374, 187500.0, 187500.0, 187500.0, 187500.0, 187500.0, 187500.0, 187500.0, 0.032, -0.006, 1.004, 192.0, 0.0, 0.0, 0.0, 0.0, 0.0, 0.0, 0.0, 0.0, 0.0, 1.6946007064618087E9, 0.0, 2023-09-13 12:25:06.461
93.0, -376.5598388385581, 187500.0, 187500.0, 187500.0, 187500.0, 187500.0, 187500.0, 187500.0, 0.032, -0.006, 1.004, 192.0, 0.0, 0.0, 0.0, 0.0, 0.0, 0.0, 0.0, 0.0, 0.0, 1.694600706462004E9, 0.0, 2023-09-13 12:25:06.462
94.0, -524.6624975994226, 187500.0, 187500.0, 187500.0, 187500.0, 187500.0, 187500.0, 187500.0, 0.032, -0.006, 1.004, 192.0, 0.0, 0.0, 0.0, 0.0, 0.0, 0.0, 0.0, 0.0, 0.0, 1.694600706462051E9, 0.0, 2023-09-13 12:25:06.462
95.0, -525.3554016775372, 187500.0, 187500.0, 187500.0, 187500.0, 187500.0, 187500.0, 187500.0, 0.032, -0.006, 1.004, 192.0, 0.0, 0.0, 0.0, 0.0, 0.0, 0.0, 0.0, 0.0, 0.0, 1.6946007064620967E9, 0.0, 2023-09-13 12:25:06.462
96.0, -368.110879434452, 187500.0, 187500.0, 187500.0, 187500.0, 187500.0, 187500.0, 187500.0, 0.032, -0.006, 1.004, 192.0, 0.0, 0.0, 0.0, 0.0, 0.0, 0.0, 0.0, 0.0, 0.0, 1.6946007064621427E9, 0.0, 2023-09-13 12:25:06.462
97.0, 142.42531566921662, 187500.0, 187500.0, 187500.0, 187500.0, 187500.0, 187500.0, 187500.0, 0.036000000000000004, -0.008, 1.0, 192.0, 1.0, 32.0, 255.0, 192.0, 31.0, 64.0, 0.0, 0.0, 0.0, 1.6946007064621823E9, 0.0, 2023-09-13 12:25:06.462
98.0, 240.90710173929952, 187500.0, 187500.0, 187500.0, 187500.0, 187500.0, 187500.0, 187500.0, 0.036000000000000004, -0.008, 1.0, 192.0, 0.0, 0.0, 0.0, 0.0, 0.0, 0.0, 0.0, 0.0, 0.0, 1.6946007064622104E9, 0.0, 2023-09-13 12:25:06.462
99.0, 209.12292112385288, 187500.0, 187500.0, 187500.0, 187500.0, 187500.0, 187500.0, 187500.0, 0.036000000000000004, -0.008, 1.0, 192.0, 0.0, 0.0, 0.0, 0.0, 0.0, 0.0, 0.0, 0.0, 0.0, 1.6946007064622357E9, 0.0, 2023-09-13 12:25:06.462
100.0, 78.52167827149371, 187500.0, 187500.0, 187500.0, 187500.0, 187500.0, 187500.0, 187500.0, 0.036000000000000004, -0.008, 1.0, 192.0, 0.0, 0.0, 0.0, 0.0, 0.0, 0.0, 0.0, 0.0, 0.0, 1.6946007064622605E9, 0.0, 2023-09-13 12:25:06.462
101.0, -375.1516789378737, 187500.0, 187500.0, 187500.0, 187500.0, 187500.0, 187500.0, 187500.0, 0.036000000000000004, -0.008, 1.0, 192.0, 0.0, 0.0, 0.0, 0.0, 0.0, 0.0, 0.0, 0.0, 0.0, 1.6946007064622858E9, 0.0, 2023-09-13 12:25:06.462
102.0, -472.1358981294511, 187500.0, 187500.0, 187500.0, 187500.0, 187500.0, 187500.0, 187500.0, 0.036000000000000004, -0.008, 1.0, 192.0, 0.0, 0.0, 0.0, 0.0, 0.0, 0.0, 0.0, 0.0, 0.0, 1.6946007064623106E9, 0.0, 2023-09-13 12:25:06.462
103.0, -490.06199718260734, 187500.0, 187500.0, 187500.0, 187500.0, 187500.0, 187500.0, 187500.0, 0.036000000000000004, -0.008, 1.0, 192.0, 0.0, 0.0, 0.0, 0.0, 0.0, 0.0, 0.0, 0.0, 0.0, 1.6946007064623356E9, 0.0, 2023-09-13 12:25:06.462
104.0, -402.77843508463326, 187500.0, 187500.0, 187500.0, 187500.0, 187500.0, 187500.0, 187500.0, 0.036000000000000004, -0.008, 1.0, 192.0, 0.0, 0.0, 0.0, 0.0, 0.0, 0.0, 0.0, 0.0, 0.0, 1.6946007064623604E9, 0.0, 2023-09-13 12:25:06.462
105.0, 83.68493124066964, 187500.0, 187500.0, 187500.0, 187500.0, 187500.0, 187500.0, 187500.0, 0.036000000000000004, -0.008, 1.0, 192.0, 0.0, 0.0, 0.0, 0.0, 0.0, 0.0, 0.0, 0.0, 0.0, 1.6946007064623852E9, 0.0, 2023-09-13 12:25:06.462
106.0, 241.57765407295872, 187500.0, 187500.0, 187500.0, 187500.0, 187500.0, 187500.0, 187500.0, 0.036000000000000004, -0.008, 1.0, 192.0, 0.0, 0.0, 0.0, 0.0, 0.0, 0.0, 0.0, 0.0, 0.0, 1.6946007064624102E9, 0.0, 2023-09-13 12:25:06.462
107.0, 263.2811979390619, 187500.0, 187500.0, 187500.0, 187500.0, 187500.0, 187500.0, 187500.0, 0.036000000000000004, -0.01, 1.0, 192.0, 1.0, 32.0, 255.0, 176.0, 31.0, 64.0, 0.0, 0.0, 0.0, 1.6946007064624352E9, 0.0, 2023-09-13 12:25:06.462
108.0, 116.87727175680062, 187500.0, 187500.0, 187500.0, 187500.0, 187500.0, 187500.0, 187500.0, 0.036000000000000004, -0.01, 1.0, 192.0, 0.0, 0.0, 0.0, 0.0, 0.0, 0.0, 0.0, 0.0, 0.0, 1.69460070646257E9, 0.0, 2023-09-13 12:25:06.462
109.0, -407.7628740981667, 187500.0, 187500.0, 187500.0, 187500.0, 187500.0, 187500.0, 187500.0, 0.036000000000000004, -0.01, 1.0, 192.0, 0.0, 0.0, 0.0, 0.0, 0.0, 0.0, 0.0, 0.0, 0.0, 1.6946007064626076E9, 0.0, 2023-09-13 12:25:06.462
110.0, -528.4846459012801, 187500.0, 187500.0, 187500.0, 187500.0, 187500.0, 187500.0, 187500.0, 0.036000000000000004, -0.01, 1.0, 192.0, 0.0, 0.0, 0.0, 0.0, 0.0, 0.0, 0.0, 0.0, 0.0, 1.694600706462646E9, 0.0, 2023-09-13 12:25:06.462
111.0, -493.23594489526096, 187500.0, 187500.0, 187500.0, 187500.0, 187500.0, 187500.0, 187500.0, 0.036000000000000004, -0.01, 1.0, 192.0, 0.0, 0.0, 0.0, 0.0, 0.0, 0.0, 0.0, 0.0, 0.0, 1.6946007064626718E9, 0.0, 2023-09-13 12:25:06.462
112.0, -345.6250245124131, 187500.0, 187500.0, 187500.0, 187500.0, 187500.0, 187500.0, 187500.0, 0.036000000000000004, -0.01, 1.0, 192.0, 0.0, 0.0, 0.0, 0.0, 0.0, 0.0, 0.0, 0.0, 0.0, 1.6946007064626968E9, 0.0, 2023-09-13 12:25:06.462
113.0, 120.83353052538997, 187500.0, 187500.0, 187500.0, 187500.0, 187500.0, 187500.0, 187500.0, 0.036000000000000004, -0.01, 1.0, 192.0, 0.0, 0.0, 0.0, 0.0, 0.0, 0.0, 0.0, 0.0, 0.0, 1.6946007064627216E9, 0.0, 2023-09-13 12:25:06.462
114.0, 210.4640257911713, 187500.0, 187500.0, 187500.0, 187500.0, 187500.0, 187500.0, 187500.0, 0.036000000000000004, -0.01, 1.0, 192.0, 0.0, 0.0, 0.0, 0.0, 0.0, 0.0, 0.0, 0.0, 0.0, 1.694600706462747E9, 0.0, 2023-09-13 12:25:06.462
115.0, 207.6253542453473, 187500.0, 187500.0, 187500.0, 187500.0, 187500.0, 187500.0, 187500.0, 0.036000000000000004, -0.01, 1.0, 192.0, 0.0, 0.0, 0.0, 0.0, 0.0, 0.0, 0.0, 0.0, 0.0, 1.6946007064627721E9, 0.0, 2023-09-13 12:25:06.462
116.0, 111.78107402099062, 187500.0, 187500.0, 187500.0, 187500.0, 187500.0, 187500.0, 187500.0, 0.036000000000000004, -0.01, 1.0, 192.0, 0.0, 0.0, 0.0, 0.0, 0.0, 0.0, 0.0, 0.0, 0.0, 1.6946007064627976E9, 0.0, 2023-09-13 12:25:06.462
117.0, -354.58807403899124, 187500.0, 187500.0, 187500.0, 187500.0, 187500.0, 187500.0, 187500.0, 0.032, -0.008, 1.004, 192.0, 1.0, 0.0, 255.0, 192.0, 31.0, 96.0, 0.0, 0.0, 0.0, 1.694600706462823E9, 0.0, 2023-09-13 12:25:06.462
118.0, -489.9278867158755, 187500.0, 187500.0, 187500.0, 187500.0, 187500.0, 187500.0, 187500.0, 0.032, -0.008, 1.004, 192.0, 0.0, 0.0, 0.0, 0.0, 0.0, 0.0, 0.0, 0.0, 0.0, 1.6946007064628513E9, 0.0, 2023-09-13 12:25:06.462
119.0, -521.5109016312244, 187500.0, 187500.0, 187500.0, 187500.0, 187500.0, 187500.0, 187500.0, 0.032, -0.008, 1.004, 192.0, 0.0, 0.0, 0.0, 0.0, 0.0, 0.0, 0.0, 0.0, 0.0, 1.6946007064629025E9, 0.0, 2023-09-13 12:25:06.462
120.0, -405.4159409303595, 187500.0, 187500.0, 187500.0, 187500.0, 187500.0, 187500.0, 187500.0, 0.032, -0.008, 1.004, 192.0, 0.0, 0.0, 0.0, 0.0, 0.0, 0.0, 0.0, 0.0, 0.0, 1.694600706462947E9, 0.0, 2023-09-13 12:25:06.462
121.0, 119.42537062470564, 187500.0, 187500.0, 187500.0, 187500.0, 187500.0, 187500.0, 187500.0, 0.032, -0.008, 1.004, 192.0, 0.0, 0.0, 0.0, 0.0, 0.0, 0.0, 0.0, 0.0, 0.0, 1.6946007069358358E9, 0.0, 2023-09-13 12:25:06.935
122.0, 265.67283459577976, 187500.0, 187500.0, 187500.0, 187500.0, 187500.0, 187500.0, 187500.0, 0.032, -0.008, 1.004, 192.0, 0.0, 0.0, 0.0, 0.0, 0.0, 0.0, 0.0, 0.0, 0.0, 1.6946007069360447E9, 0.0, 2023-09-13 12:25:06.936
123.0, 241.24237790612912, 187500.0, 187500.0, 187500.0, 187500.0, 187500.0, 187500.0, 187500.0, 0.032, -0.008, 1.004, 192.0, 0.0, 0.0, 0.0, 0.0, 0.0, 0.0, 0.0, 0.0, 0.0, 1.6946007069362838E9, 0.0, 2023-09-13 12:25:06.936
124.0, 79.50515502752722, 187500.0, 187500.0, 187500.0, 187500.0, 187500.0, 187500.0, 187500.0, 0.032, -0.008, 1.004, 192.0, 0.0, 0.0, 0.0, 0.0, 0.0, 0.0, 0.0, 0.0, 0.0, 1.6946007069363403E9, 0.0, 2023-09-13 12:25:06.936
125.0, -408.8581095764768, 187500.0, 187500.0, 187500.0, 187500.0, 187500.0, 187500.0, 187500.0, 0.032, -0.008, 1.004, 192.0, 0.0, 0.0, 0.0, 0.0, 0.0, 0.0, 0.0, 0.0, 0.0, 1.6946007069363914E9, 0.0, 2023-09-13 12:25:06.936
126.0, -489.79377624914366, 187500.0, 187500.0, 187500.0, 187500.0, 187500.0, 187500.0, 187500.0, 0.032, -0.008, 1.004, 192.0, 0.0, 0.0, 0.0, 0.0, 0.0, 0.0, 0.0, 0.0, 0.0, 1.694600706936438E9, 0.0, 2023-09-13 12:25:06.936
127.0, -469.073709139074, 187500.0, 187500.0, 187500.0, 187500.0, 187500.0, 187500.0, 187500.0, 0.032, -0.008, 1.008, 192.0, 1.0, 0.0, 255.0, 192.0, 31.0, 128.0, 0.0, 0.0, 0.0, 1.6946007069364789E9, 0.0, 2023-09-13 12:25:06.936
128.0, -367.5744375675246, 187500.0, 187500.0, 187500.0, 187500.0, 187500.0, 187500.0, 187500.0, 0.032, -0.008, 1.008, 192.0, 0.0, 0.0, 0.0, 0.0, 0.0, 0.0, 0.0, 0.0, 0.0, 1.6946007069365273E9, 0.0, 2023-09-13 12:25:06.936
129.0, 84.89192544125622, 187500.0, 187500.0, 187500.0, 187500.0, 187500.0, 187500.0, 187500.0, 0.032, -0.008, 1.008, 192.0, 0.0, 0.0, 0.0, 0.0, 0.0, 0.0, 0.0, 0.0, 0.0, 1.6946007069365687E9, 0.0, 2023-09-13 12:25:06.936
130.0, 204.54081351051494, 187500.0, 187500.0, 187500.0, 187500.0, 187500.0, 187500.0, 187500.0, 0.032, -0.008, 1.008, 192.0, 0.0, 0.0, 0.0, 0.0, 0.0, 0.0, 0.0, 0.0, 0.0, 1.6946007069366047E9, 0.0, 2023-09-13 12:25:06.936
131.0, 242.3599651288945, 187500.0, 187500.0, 187500.0, 187500.0, 187500.0, 187500.0, 187500.0, 0.032, -0.008, 1.008, 192.0, 0.0, 0.0, 0.0, 0.0, 0.0, 0.0, 0.0, 0.0, 0.0, 1.6946007069366465E9, 0.0, 2023-09-13 12:25:06.936
132.0, 140.34660343487306, 187500.0, 187500.0, 187500.0, 187500.0, 187500.0, 187500.0, 187500.0, 0.032, -0.008, 1.008, 192.0, 0.0, 0.0, 0.0, 0.0, 0.0, 0.0, 0.0, 0.0, 0.0, 1.6946007069366846E9, 0.0, 2023-09-13 12:25:06.936
133.0, -375.6434173158905, 187500.0, 187500.0, 187500.0, 187500.0, 187500.0, 187500.0, 187500.0, 0.032, -0.008, 1.008, 192.0, 0.0, 0.0, 0.0, 0.0, 0.0, 0.0, 0.0, 0.0, 0.0, 1.69460070693672E9, 0.0, 2023-09-13 12:25:06.936
134.0, -526.9200237894087, 187500.0, 187500.0, 187500.0, 187500.0, 187500.0, 187500.0, 187500.0, 0.032, -0.008, 1.008, 192.0, 0.0, 0.0, 0.0, 0.0, 0.0, 0.0, 0.0, 0.0, 0.0, 1.6946007069367535E9, 0.0, 2023-09-13 12:25:06.936
135.0, -525.4224569109031, 187500.0, 187500.0, 187500.0, 187500.0, 187500.0, 187500.0, 187500.0, 0.032, -0.008, 1.008, 192.0, 0.0, 0.0, 0.0, 0.0, 0.0, 0.0, 0.0, 0.0, 0.0, 1.6946007069367864E9, 0.0, 2023-09-13 12:25:06.936
136.0, -370.07783294651904, 187500.0, 187500.0, 187500.0, 187500.0, 187500.0, 187500.0, 187500.0, 0.032, -0.008, 1.008, 192.0, 0.0, 0.0, 0.0, 0.0, 0.0, 0.0, 0.0, 0.0, 0.0, 1.6946007069368184E9, 0.0, 2023-09-13 12:25:06.936
137.0, 147.476809916116, 187500.0, 187500.0, 187500.0, 187500.0, 187500.0, 187500.0, 187500.0, 0.026000000000000002, -0.006, 1.004, 192.0, 0.0, 208.0, 255.0, 208.0, 31.0, 96.0, 0.0, 0.0, 0.0, 1.694600706936849E9, 0.0, 2023-09-13 12:25:06.936
138.0, 245.51156109709277, 187500.0, 187500.0, 187500.0, 187500.0, 187500.0, 187500.0, 187500.0, 0.026000000000000002, -0.006, 1.004, 192.0, 0.0, 0.0, 0.0, 0.0, 0.0, 0.0, 0.0, 0.0, 0.0, 1.6946007069369712E9, 0.0, 2023-09-13 12:25:06.936
139.0, 207.78181645653444, 187500.0, 187500.0, 187500.0, 187500.0, 187500.0, 187500.0, 187500.0, 0.026000000000000002, -0.006, 1.004, 192.0, 0.0, 0.0, 0.0, 0.0, 0.0, 0.0, 0.0, 0.0, 0.0, 1.6946007069370089E9, 0.0, 2023-09-13 12:25:06.937
140.0, 80.73450097256911, 187500.0, 187500.0, 187500.0, 187500.0, 187500.0, 187500.0, 187500.0, 0.026000000000000002, -0.006, 1.004, 192.0, 0.0, 0.0, 0.0, 0.0, 0.0, 0.0, 0.0, 0.0, 0.0, 1.6946007069370496E9, 0.0, 2023-09-13 12:25:06.937
141.0, -378.4373853728039, 187500.0, 187500.0, 187500.0, 187500.0, 187500.0, 187500.0, 187500.0, 0.026000000000000002, -0.006, 1.004, 192.0, 0.0, 0.0, 0.0, 0.0, 0.0, 0.0, 0.0, 0.0, 0.0, 1.6946007069370933E9, 0.0, 2023-09-13 12:25:06.937
142.0, -467.28556958264943, 187500.0, 187500.0, 187500.0, 187500.0, 187500.0, 187500.0, 187500.0, 0.026000000000000002, -0.006, 1.004, 192.0, 0.0, 0.0, 0.0, 0.0, 0.0, 0.0, 0.0, 0.0, 0.0, 1.6946007069371302E9, 0.0, 2023-09-13 12:25:06.937
143.0, -491.38075010547044, 187500.0, 187500.0, 187500.0, 187500.0, 187500.0, 187500.0, 187500.0, 0.026000000000000002, -0.006, 1.004, 192.0, 0.0, 0.0, 0.0, 0.0, 0.0, 0.0, 0.0, 0.0, 0.0, 1.6946007069371655E9, 0.0, 2023-09-13 12:25:06.937
144.0, -402.9125455513651, 187500.0, 187500.0, 187500.0, 187500.0, 187500.0, 187500.0, 187500.0, 0.026000000000000002, -0.006, 1.004, 192.0, 0.0, 0.0, 0.0, 0.0, 0.0, 0.0, 0.0, 0.0, 0.0, 1.6946007069372025E9, 0.0, 2023-09-13 12:25:06.937
145.0, 88.2670388540076, 187500.0, 187500.0, 187500.0, 187500.0, 187500.0, 187500.0, 187500.0, 0.026000000000000002, -0.006, 1.004, 192.0, 0.0, 0.0, 0.0, 0.0, 0.0, 0.0, 0.0, 0.0, 0.0, 1.6946007069372368E9, 0.0, 2023-09-13 12:25:06.937
146.0, 240.92945348375483, 187500.0, 187500.0, 187500.0, 187500.0, 187500.0, 187500.0, 187500.0, 0.026000000000000002, -0.008, 1.008, 192.0, 0.0, 208.0, 255.0, 192.0, 31.0, 128.0, 0.0, 0.0, 0.0, 1.6946007069372704E9, 0.0, 2023-09-13 12:25:06.937
147.0, 263.81763980598924, 187500.0, 187500.0, 187500.0, 187500.0, 187500.0, 187500.0, 187500.0, 0.026000000000000002, -0.008, 1.008, 192.0, 0.0, 0.0, 0.0, 0.0, 0.0, 0.0, 0.0, 0.0, 0.0, 1.6946007069373062E9, 0.0, 2023-09-13 12:25:06.937
148.0, 118.33013514639559, 187500.0, 187500.0, 187500.0, 187500.0, 187500.0, 187500.0, 187500.0, 0.026000000000000002, -0.008, 1.008, 192.0, 0.0, 0.0, 0.0, 0.0, 0.0, 0.0, 0.0, 0.0, 0.0, 1.6946007069373388E9, 0.0, 2023-09-13 12:25:06.937
149.0, -407.3828944424265, 187500.0, 187500.0, 187500.0, 187500.0, 187500.0, 187500.0, 187500.0, 0.026000000000000002, -0.008, 1.008, 192.0, 0.0, 0.0, 0.0, 0.0, 0.0, 0.0, 0.0, 0.0, 0.0, 1.6946007069373703E9, 0.0, 2023-09-13 12:25:06.937
150.0, -526.8082650671322, 187500.0, 187500.0, 187500.0, 187500.0, 187500.0, 187500.0, 187500.0, 0.026000000000000002, -0.008, 1.008, 192.0, 0.0, 0.0, 0.0, 0.0, 0.0, 0.0, 0.0, 0.0, 0.0, 1.694600706937402E9, 0.0, 2023-09-13 12:25:06.937
151.0, -489.6596657824118, 187500.0, 187500.0, 187500.0, 187500.0, 187500.0, 187500.0, 187500.0, 0.026000000000000002, -0.008, 1.008, 192.0, 0.0, 0.0, 0.0, 0.0, 0.0, 0.0, 0.0, 0.0, 0.0, 1.694600706937434E9, 0.0, 2023-09-13 12:25:06.937
152.0, -348.9777861807092, 187500.0, 187500.0, 187500.0, 187500.0, 187500.0, 187500.0, 187500.0, 0.026000000000000002, -0.008, 1.008, 192.0, 0.0, 0.0, 0.0, 0.0, 0.0, 0.0, 0.0, 0.0, 0.0, 1.694600706937466E9, 0.0, 2023-09-13 12:25:06.937
153.0, 123.33692590438437, 187500.0, 187500.0, 187500.0, 187500.0, 187500.0, 187500.0, 187500.0, 0.026000000000000002, -0.008, 1.008, 192.0, 0.0, 0.0, 0.0, 0.0, 0.0, 0.0, 0.0, 0.0, 0.0, 1.6946007069374998E9, 0.0, 2023-09-13 12:25:06.937
154.0, 210.7993019580009, 187500.0, 187500.0, 187500.0, 187500.0, 187500.0, 187500.0, 187500.0, 0.026000000000000002, -0.008, 1.008, 192.0, 0.0, 0.0, 0.0, 0.0, 0.0, 0.0, 0.0, 0.0, 0.0, 1.6946007069376724E9, 0.0, 2023-09-13 12:25:06.937
155.0, 207.9606304121769, 187500.0, 187500.0, 187500.0, 187500.0, 187500.0, 187500.0, 187500.0, 0.026000000000000002, -0.008, 1.008, 192.0, 0.0, 0.0, 0.0, 0.0, 0.0, 0.0, 0.0, 0.0, 0.0, 1.6946007069377136E9, 0.0, 2023-09-13 12:25:06.937
156.0, 110.17174842020852, 187500.0, 187500.0, 187500.0, 187500.0, 187500.0, 187500.0, 187500.0, 0.024, -0.006, 1.0, 192.0, 0.0, 192.0, 255.0, 208.0, 31.0, 64.0, 0.0, 0.0, 0.0, 1.694600706937749E9, 0.0, 2023-09-13 12:25:06.937
157.0, -354.208094383251, 187500.0, 187500.0, 187500.0, 187500.0, 187500.0, 187500.0, 187500.0, 0.024, -0.006, 1.0, 192.0, 0.0, 0.0, 0.0, 0.0, 0.0, 0.0, 0.0, 0.0, 0.0, 1.6946007069377978E9, 0.0, 2023-09-13 12:25:06.937
158.0, -484.4964128132359, 187500.0, 187500.0, 187500.0, 187500.0, 187500.0, 187500.0, 187500.0, 0.024, -0.006, 1.0, 192.0, 0.0, 0.0, 0.0, 0.0, 0.0, 0.0, 0.0, 0.0, 0.0, 1.694600706937856E9, 0.0, 2023-09-13 12:25:06.937
159.0, -523.7907795656657, 187500.0, 187500.0, 187500.0, 187500.0, 187500.0, 187500.0, 187500.0, 0.024, -0.006, 1.0, 192.0, 0.0, 0.0, 0.0, 0.0, 0.0, 0.0, 0.0, 0.0, 0.0, 1.6946007069379156E9, 0.0, 2023-09-13 12:25:06.937
160.0, -407.47230142024773, 187500.0, 187500.0, 187500.0, 187500.0, 187500.0, 187500.0, 187500.0, 0.024, -0.006, 1.0, 192.0, 0.0, 0.0, 0.0, 0.0, 0.0, 0.0, 0.0, 0.0, 0.0, 1.6946007069380412E9, 0.0, 2023-09-13 12:25:06.938
161.0, 119.9394607471777, 187500.0, 187500.0, 187500.0, 187500.0, 187500.0, 187500.0, 187500.0, 0.024, -0.006, 1.0, 192.0, 0.0, 0.0, 0.0, 0.0, 0.0, 0.0, 0.0, 0.0, 0.0, 1.6946007069380984E9, 0.0, 2023-09-13 12:25:06.938
162.0, 267.8186020634892, 187500.0, 187500.0, 187500.0, 187500.0, 187500.0, 187500.0, 187500.0, 0.024, -0.006, 1.0, 192.0, 0.0, 0.0, 0.0, 0.0, 0.0, 0.0, 0.0, 0.0, 0.0, 1.6946007069381428E9, 0.0, 2023-09-13 12:25:06.938
163.0, 248.19377043172963, 187500.0, 187500.0, 187500.0, 187500.0, 187500.0, 187500.0, 187500.0, 0.024, -0.006, 1.0, 192.0, 0.0, 0.0, 0.0, 0.0, 0.0, 0.0, 0.0, 0.0, 0.0, 1.6946007069382024E9, 0.0, 2023-09-13 12:25:06.938
164.0, 76.64413173724792, 187500.0, 187500.0, 187500.0, 187500.0, 187500.0, 187500.0, 187500.0, 0.024, -0.006, 1.0, 192.0, 0.0, 0.0, 0.0, 0.0, 0.0, 0.0, 0.0, 0.0, 0.0, 1.6946007069382613E9, 0.0, 2023-09-13 12:25:06.938
165.0, -409.4616066767701, 187500.0, 187500.0, 187500.0, 187500.0, 187500.0, 187500.0, 187500.0, 0.024, -0.006, 1.0, 192.0, 0.0, 0.0, 0.0, 0.0, 0.0, 0.0, 0.0, 0.0, 0.0, 1.69460070693831E9, 0.0, 2023-09-13 12:25:06.938
166.0, -486.4410145808476, 187500.0, 187500.0, 187500.0, 187500.0, 187500.0, 187500.0, 187500.0, 0.026000000000000002, -0.01, 1.004, 192.0, 0.0, 208.0, 255.0, 176.0, 31.0, 96.0, 0.0, 0.0, 0.0, 1.6946007069383633E9, 0.0, 2023-09-13 12:25:06.938
167.0, -473.63346500795666, 187500.0, 187500.0, 187500.0, 187500.0, 187500.0, 187500.0, 187500.0, 0.026000000000000002, -0.01, 1.004, 192.0, 0.0, 0.0, 0.0, 0.0, 0.0, 0.0, 0.0, 0.0, 0.0, 1.6946007069384234E9, 0.0, 2023-09-13 12:25:06.938
168.0, -364.93693172179843, 187500.0, 187500.0, 187500.0, 187500.0, 187500.0, 187500.0, 187500.0, 0.026000000000000002, -0.01, 1.004, 192.0, 0.0, 0.0, 0.0, 0.0, 0.0, 0.0, 0.0, 0.0, 0.0, 1.6946007069384816E9, 0.0, 2023-09-13 12:25:06.938
169.0, 87.48472779807184, 187500.0, 187500.0, 187500.0, 187500.0, 187500.0, 187500.0, 187500.0, 0.026000000000000002, -0.01, 1.004, 192.0, 0.0, 0.0, 0.0, 0.0, 0.0, 0.0, 0.0, 0.0, 0.0, 1.6946007069388213E9, 0.0, 2023-09-13 12:25:06.938
170.0, 206.6195257448585, 187500.0, 187500.0, 187500.0, 187500.0, 187500.0, 187500.0, 187500.0, 0.026000000000000002, -0.01, 1.004, 192.0, 0.0, 0.0, 0.0, 0.0, 0.0, 0.0, 0.0, 0.0, 0.0, 1.694600706938892E9, 0.0, 2023-09-13 12:25:06.938
171.0, 243.14227618483022, 187500.0, 187500.0, 187500.0, 187500.0, 187500.0, 187500.0, 187500.0, 0.026000000000000002, -0.01, 1.004, 192.0, 0.0, 0.0, 0.0, 0.0, 0.0, 0.0, 0.0, 0.0, 0.0, 1.69460070693901E9, 0.0, 2023-09-13 12:25:06.939
172.0, 137.3738214223172, 187500.0, 187500.0, 187500.0, 187500.0, 187500.0, 187500.0, 187500.0, 0.026000000000000002, -0.01, 1.004, 192.0, 0.0, 0.0, 0.0, 0.0, 0.0, 0.0, 0.0, 0.0, 0.0, 1.6946007069390705E9, 0.0, 2023-09-13 12:25:06.939
173.0, -375.53165859361394, 187500.0, 187500.0, 187500.0, 187500.0, 187500.0, 187500.0, 187500.0, 0.026000000000000002, -0.01, 1.004, 192.0, 0.0, 0.0, 0.0, 0.0, 0.0, 0.0, 0.0, 0.0, 0.0, 1.6946007069391303E9, 0.0, 2023-09-13 12:25:06.939
174.0, -522.7849510651769, 187500.0, 187500.0, 187500.0, 187500.0, 187500.0, 187500.0, 187500.0, 0.026000000000000002, -0.01, 1.004, 192.0, 0.0, 0.0, 0.0, 0.0, 0.0, 0.0, 0.0, 0.0, 0.0, 1.6946007069391823E9, 0.0, 2023-09-13 12:25:06.939
175.0, -524.9754220217969, 187500.0, 187500.0, 187500.0, 187500.0, 187500.0, 187500.0, 187500.0, 0.026000000000000002, -0.01, 1.004, 192.0, 0.0, 0.0, 0.0, 0.0, 0.0, 0.0, 0.0, 0.0, 0.0, 1.6946007069392407E9, 0.0, 2023-09-13 12:25:06.939
176.0, -370.949550980276, 187500.0, 187500.0, 187500.0, 187500.0, 187500.0, 187500.0, 187500.0, 0.028, -0.008, 1.004, 192.0, 0.0, 224.0, 255.0, 192.0, 31.0, 96.0, 0.0, 0.0, 0.0, 1.6946007069392946E9, 0.0, 2023-09-13 12:25:06.939
177.0, 141.8441703133786, 187500.0, 187500.0, 187500.0, 187500.0, 187500.0, 187500.0, 187500.0, 0.028, -0.008, 1.004, 192.0, 0.0, 0.0, 0.0, 0.0, 0.0, 0.0, 0.0, 0.0, 0.0, 1.69460070693936E9, 0.0, 2023-09-13 12:25:06.939
178.0, 243.47755235165982, 187500.0, 187500.0, 187500.0, 187500.0, 187500.0, 187500.0, 187500.0, 0.028, -0.008, 1.004, 192.0, 0.0, 0.0, 0.0, 0.0, 0.0, 0.0, 0.0, 0.0, 0.0, 1.6946007069394197E9, 0.0, 2023-09-13 12:25:06.939
179.0, 209.07821763494226, 187500.0, 187500.0, 187500.0, 187500.0, 187500.0, 187500.0, 187500.0, 0.028, -0.008, 1.004, 192.0, 0.0, 0.0, 0.0, 0.0, 0.0, 0.0, 0.0, 0.0, 0.0, 1.6946007069394648E9, 0.0, 2023-09-13 12:25:06.939
180.0, 83.34965507384004, 187500.0, 187500.0, 187500.0, 187500.0, 187500.0, 187500.0, 187500.0, 0.028, -0.008, 1.004, 192.0, 0.0, 0.0, 0.0, 0.0, 0.0, 0.0, 0.0, 0.0, 0.0, 1.694600706939546E9, 0.0, 2023-09-13 12:25:06.939
181.0, -378.8173650285441, 187500.0, 187500.0, 187500.0, 187500.0, 187500.0, 187500.0, 187500.0, 0.028, -0.008, 1.004, 192.0, 0.0, 0.0, 0.0, 0.0, 0.0, 0.0, 0.0, 0.0, 0.0, 1.6946007069395983E9, 0.0, 2023-09-13 12:25:06.939
182.0, -469.5654475170908, 187500.0, 187500.0, 187500.0, 187500.0, 187500.0, 187500.0, 187500.0, 0.028, -0.008, 1.004, 192.0, 0.0, 0.0, 0.0, 0.0, 0.0, 0.0, 0.0, 0.0, 0.0, 1.694600706939658E9, 0.0, 2023-09-13 12:25:06.939
183.0, -489.10087217102915, 187500.0, 187500.0, 187500.0, 187500.0, 187500.0, 187500.0, 187500.0, 0.028, -0.008, 1.004, 192.0, 0.0, 0.0, 0.0, 0.0, 0.0, 0.0, 0.0, 0.0, 0.0, 1.6946007069397118E9, 0.0, 2023-09-13 12:25:06.939
184.0, -398.8445280604992, 187500.0, 187500.0, 187500.0, 187500.0, 187500.0, 187500.0, 187500.0, 0.028, -0.008, 1.004, 192.0, 0.0, 0.0, 0.0, 0.0, 0.0, 0.0, 0.0, 0.0, 0.0, 1.6946007069398243E9, 0.0, 2023-09-13 12:25:06.939
185.0, 84.02020740749924, 187500.0, 187500.0, 187500.0, 187500.0, 187500.0, 187500.0, 187500.0, 0.028, -0.008, 1.004, 192.0, 0.0, 0.0, 0.0, 0.0, 0.0, 0.0, 0.0, 0.0, 0.0, 1.6946007069398522E9, 0.0, 2023-09-13 12:25:06.939
186.0, 240.1471424278191, 187500.0, 187500.0, 187500.0, 187500.0, 187500.0, 187500.0, 187500.0, 0.03, -0.014, 1.006, 192.0, 0.0, 240.0, 255.0, 144.0, 31.0, 112.0, 0.0, 0.0, 0.0, 1.6946007069398785E9, 0.0, 2023-09-13 12:25:06.939
187.0, 262.4318316497602, 187500.0, 187500.0, 187500.0, 187500.0, 187500.0, 187500.0, 187500.0, 0.03, -0.014, 1.006, 192.0, 0.0, 0.0, 0.0, 0.0, 0.0, 0.0, 0.0, 0.0, 0.0, 1.694600706939922E9, 0.0, 2023-09-13 12:25:06.939
188.0, 118.28543165748498, 187500.0, 187500.0, 187500.0, 187500.0, 187500.0, 187500.0, 187500.0, 0.03, -0.014, 1.006, 192.0, 0.0, 0.0, 0.0, 0.0, 0.0, 0.0, 0.0, 0.0, 0.0, 1.6946007069399605E9, 0.0, 2023-09-13 12:25:06.939
189.0, -407.0476182755969, 187500.0, 187500.0, 187500.0, 187500.0, 187500.0, 187500.0, 187500.0, 0.03, -0.014, 1.006, 192.0, 0.0, 0.0, 0.0, 0.0, 0.0, 0.0, 0.0, 0.0, 0.0, 1.694600706939986E9, 0.0, 2023-09-13 12:25:06.939
190.0, -529.490474401769, 187500.0, 187500.0, 187500.0, 187500.0, 187500.0, 187500.0, 187500.0, 0.03, -0.014, 1.006, 192.0, 0.0, 0.0, 0.0, 0.0, 0.0, 0.0, 0.0, 0.0, 0.0, 1.6946007069400115E9, 0.0, 2023-09-13 12:25:06.940
191.0, -491.3136948721045, 187500.0, 187500.0, 187500.0, 187500.0, 187500.0, 187500.0, 187500.0, 0.03, -0.014, 1.006, 192.0, 0.0, 0.0, 0.0, 0.0, 0.0, 0.0, 0.0, 0.0, 0.0, 1.6946007069400384E9, 0.0, 2023-09-13 12:25:06.940
192.0, -347.2567018576505, 187500.0, 187500.0, 187500.0, 187500.0, 187500.0, 187500.0, 187500.0, 0.03, -0.014, 1.006, 192.0, 0.0, 0.0, 0.0, 0.0, 0.0, 0.0, 0.0, 0.0, 0.0, 1.6946007069400673E9, 0.0, 2023-09-13 12:25:06.940
193.0, 123.51573986002683, 187500.0, 187500.0, 187500.0, 187500.0, 187500.0, 187500.0, 187500.0, 0.03, -0.014, 1.006, 192.0, 0.0, 0.0, 0.0, 0.0, 0.0, 0.0, 0.0, 0.0, 0.0, 1.6946007069400935E9, 0.0, 2023-09-13 12:25:06.940
194.0, 209.2346798461294, 187500.0, 187500.0, 187500.0, 187500.0, 187500.0, 187500.0, 187500.0, 0.03, -0.014, 1.006, 192.0, 0.0, 0.0, 0.0, 0.0, 0.0, 0.0, 0.0, 0.0, 0.0, 1.6946007069401193E9, 0.0, 2023-09-13 12:25:06.940
195.0, 209.97228741315453, 187500.0, 187500.0, 187500.0, 187500.0, 187500.0, 187500.0, 187500.0, 0.03, -0.014, 1.006, 192.0, 0.0, 0.0, 0.0, 0.0, 0.0, 0.0, 0.0, 0.0, 0.0, 1.6946007069401453E9, 0.0, 2023-09-13 12:25:06.940
196.0, 111.11052168733141, 187500.0, 187500.0, 187500.0, 187500.0, 187500.0, 187500.0, 187500.0, 0.032, -0.008, 1.006, 192.0, 1.0, 0.0, 255.0, 192.0, 31.0, 112.0, 0.0, 0.0, 0.0, 1.6946007069401703E9, 0.0, 2023-09-13 12:25:06.940
197.0, -353.5151903051365, 187500.0, 187500.0, 187500.0, 187500.0, 187500.0, 187500.0, 187500.0, 0.032, -0.008, 1.006, 192.0, 0.0, 0.0, 0.0, 0.0, 0.0, 0.0, 0.0, 0.0, 0.0, 1.6946007069401984E9, 0.0, 2023-09-13 12:25:06.940
198.0, -486.4857180697582, 187500.0, 187500.0, 187500.0, 187500.0, 187500.0, 187500.0, 187500.0, 0.032, -0.008, 1.006, 192.0, 0.0, 0.0, 0.0, 0.0, 0.0, 0.0, 0.0, 0.0, 0.0, 1.6946007069402237E9, 0.0, 2023-09-13 12:25:06.940
199.0, -522.3826196649813, 187500.0, 187500.0, 187500.0, 187500.0, 187500.0, 187500.0, 187500.0, 0.032, -0.008, 1.006, 192.0, 0.0, 0.0, 0.0, 0.0, 0.0, 0.0, 0.0, 0.0, 0.0, 1.6946007069402492E9, 0.0, 2023-09-13 12:25:06.940
200.0, -404.9912577857087, 187500.0, 187500.0, 187500.0, 187500.0, 187500.0, 187500.0, 187500.0, 0.032, -0.008, 1.006, 192.0, 0.0, 0.0, 0.0, 0.0, 0.0, 0.0, 0.0, 0.0, 0.0, 1.6946007069403503E9, 0.0, 2023-09-13 12:25:06.940
201.0, 121.97346949261065, 187500.0, 187500.0, 187500.0, 187500.0, 187500.0, 187500.0, 187500.0, 0.032, -0.008, 1.006, 192.0, 0.0, 0.0, 0.0, 0.0, 0.0, 0.0, 0.0, 0.0, 0.0, 1.694600706940397E9, 0.0, 2023-09-13 12:25:06.940
202.0, 264.15291597281885, 187500.0, 187500.0, 187500.0, 187500.0, 187500.0, 187500.0, 187500.0, 0.032, -0.008, 1.006, 192.0, 0.0, 0.0, 0.0, 0.0, 0.0, 0.0, 0.0, 0.0, 0.0, 1.694600706940456E9, 0.0, 2023-09-13 12:25:06.940
203.0, 242.94111048473246, 187500.0, 187500.0, 187500.0, 187500.0, 187500.0, 187500.0, 187500.0, 0.032, -0.008, 1.006, 192.0, 0.0, 0.0, 0.0, 0.0, 0.0, 0.0, 0.0, 0.0, 0.0, 1.6946007069405012E9, 0.0, 2023-09-13 12:25:06.940
204.0, 80.3545213168289, 187500.0, 187500.0, 187500.0, 187500.0, 187500.0, 187500.0, 187500.0, 0.032, -0.008, 1.006, 192.0, 0.0, 0.0, 0.0, 0.0, 0.0, 0.0, 0.0, 0.0, 0.0, 1.6946007069405432E9, 0.0, 2023-09-13 12:25:06.940
205.0, -409.8415863325103, 187500.0, 187500.0, 187500.0, 187500.0, 187500.0, 187500.0, 187500.0, 0.032, -0.008, 1.006, 192.0, 0.0, 0.0, 0.0, 0.0, 0.0, 0.0, 0.0, 0.0, 0.0, 1.6946007069405973E9, 0.0, 2023-09-13 12:25:06.940
206.0, -494.6664565404006, 187500.0, 187500.0, 187500.0, 187500.0, 187500.0, 187500.0, 187500.0, 0.03, -0.01, 1.002, 192.0, 0.0, 240.0, 255.0, 176.0, 31.0, 80.0, 0.0, 0.0, 0.0, 1.694600706940651E9, 0.0, 2023-09-13 12:25:06.940
207.0, -471.2641800956941, 187500.0, 187500.0, 187500.0, 187500.0, 187500.0, 187500.0, 187500.0, 0.03, -0.01, 1.002, 192.0, 0.0, 0.0, 0.0, 0.0, 0.0, 0.0, 0.0, 0.0, 0.0, 1.6946007069406977E9, 0.0, 2023-09-13 12:25:06.940
208.0, -361.7182805202342, 187500.0, 187500.0, 187500.0, 187500.0, 187500.0, 187500.0, 187500.0, 0.03, -0.01, 1.002, 192.0, 0.0, 0.0, 0.0, 0.0, 0.0, 0.0, 0.0, 0.0, 0.0, 1.6946007069407382E9, 0.0, 2023-09-13 12:25:06.940
209.0, 89.27286735449641, 187500.0, 187500.0, 187500.0, 187500.0, 187500.0, 187500.0, 187500.0, 0.03, -0.01, 1.002, 192.0, 0.0, 0.0, 0.0, 0.0, 0.0, 0.0, 0.0, 0.0, 0.0, 1.6946007069407804E9, 0.0, 2023-09-13 12:25:06.940
210.0, 204.47375827714902, 187500.0, 187500.0, 187500.0, 187500.0, 187500.0, 187500.0, 187500.0, 0.03, -0.01, 1.002, 192.0, 0.0, 0.0, 0.0, 0.0, 0.0, 0.0, 0.0, 0.0, 0.0, 1.694600706940823E9, 0.0, 2023-09-13 12:25:06.940
211.0, 239.47659009415986, 187500.0, 187500.0, 187500.0, 187500.0, 187500.0, 187500.0, 187500.0, 0.03, -0.01, 1.002, 192.0, 0.0, 0.0, 0.0, 0.0, 0.0, 0.0, 0.0, 0.0, 0.0, 1.6946007069408643E9, 0.0, 2023-09-13 12:25:06.940
212.0, 141.8441703133786, 187500.0, 187500.0, 187500.0, 187500.0, 187500.0, 187500.0, 187500.0, 0.03, -0.01, 1.002, 192.0, 0.0, 0.0, 0.0, 0.0, 0.0, 0.0, 0.0, 0.0, 0.0, 1.694600706940905E9, 0.0, 2023-09-13 12:25:06.940
213.0, -369.9884259686978, 187500.0, 187500.0, 187500.0, 187500.0, 187500.0, 187500.0, 187500.0, 0.03, -0.01, 1.002, 192.0, 0.0, 0.0, 0.0, 0.0, 0.0, 0.0, 0.0, 0.0, 0.0, 1.6946007069409497E9, 0.0, 2023-09-13 12:25:06.940
214.0, -525.2883464441712, 187500.0, 187500.0, 187500.0, 187500.0, 187500.0, 187500.0, 187500.0, 0.03, -0.01, 1.002, 192.0, 0.0, 0.0, 0.0, 0.0, 0.0, 0.0, 0.0, 0.0, 0.0, 1.6946007069409916E9, 0.0, 2023-09-13 12:25:06.940
215.0, -528.9540325348416, 187500.0, 187500.0, 187500.0, 187500.0, 187500.0, 187500.0, 187500.0, 0.03, -0.01, 1.002, 192.0, 0.0, 0.0, 0.0, 0.0, 0.0, 0.0, 0.0, 0.0, 0.0, 1.69460070694112E9, 0.0, 2023-09-13 12:25:06.941
216.0, -367.06034744505257, 187500.0, 187500.0, 187500.0, 187500.0, 187500.0, 187500.0, 187500.0, 0.032, -0.008, 1.004, 192.0, 1.0, 0.0, 255.0, 192.0, 31.0, 96.0, 0.0, 0.0, 0.0, 1.6946007069411645E9, 0.0, 2023-09-13 12:25:06.941
217.0, 147.07447851592048, 187500.0, 187500.0, 187500.0, 187500.0, 187500.0, 187500.0, 187500.0, 0.032, -0.008, 1.004, 192.0, 0.0, 0.0, 0.0, 0.0, 0.0, 0.0, 0.0, 0.0, 0.0, 1.6946007069412117E9, 0.0, 2023-09-13 12:25:06.941
218.0, 246.04800296402016, 187500.0, 187500.0, 187500.0, 187500.0, 187500.0, 187500.0, 187500.0, 0.032, -0.008, 1.004, 192.0, 0.0, 0.0, 0.0, 0.0, 0.0, 0.0, 0.0, 0.0, 0.0, 1.6946007069412568E9, 0.0, 2023-09-13 12:25:06.941
219.0, 209.5252525240484, 187500.0, 187500.0, 187500.0, 187500.0, 187500.0, 187500.0, 187500.0, 0.032, -0.008, 1.004, 192.0, 0.0, 0.0, 0.0, 0.0, 0.0, 0.0, 0.0, 0.0, 0.0, 1.6946007069413028E9, 0.0, 2023-09-13 12:25:06.941
220.0, 79.30398932742946, 187500.0, 187500.0, 187500.0, 187500.0, 187500.0, 187500.0, 187500.0, 0.032, -0.008, 1.004, 192.0, 0.0, 0.0, 0.0, 0.0, 0.0, 0.0, 0.0, 0.0, 0.0, 1.6946007069413488E9, 0.0, 2023-09-13 12:25:06.941
221.0, -376.64924581637933, 187500.0, 187500.0, 187500.0, 187500.0, 187500.0, 187500.0, 187500.0, 0.032, -0.008, 1.004, 192.0, 0.0, 0.0, 0.0, 0.0, 0.0, 0.0, 0.0, 0.0, 0.0, 1.694600706941394E9, 0.0, 2023-09-13 12:25:06.941
222.0, -471.8006219626215, 187500.0, 187500.0, 187500.0, 187500.0, 187500.0, 187500.0, 187500.0, 0.032, -0.008, 1.004, 192.0, 0.0, 0.0, 0.0, 0.0, 0.0, 0.0, 0.0, 0.0, 0.0, 1.6946007069414272E9, 0.0, 2023-09-13 12:25:06.941
223.0, -483.8258604795767, 187500.0, 187500.0, 187500.0, 187500.0, 187500.0, 187500.0, 187500.0, 0.032, -0.008, 1.004, 192.0, 0.0, 0.0, 0.0, 0.0, 0.0, 0.0, 0.0, 0.0, 0.0, 1.6946007069414723E9, 0.0, 2023-09-13 12:25:06.941
224.0, -402.17493798434, 187500.0, 187500.0, 187500.0, 187500.0, 187500.0, 187500.0, 187500.0, 0.032, -0.008, 1.004, 192.0, 0.0, 0.0, 0.0, 0.0, 0.0, 0.0, 0.0, 0.0, 0.0, 1.6946007069415393E9, 0.0, 2023-09-13 12:25:06.941
225.0, 84.8248702078903, 187500.0, 187500.0, 187500.0, 187500.0, 187500.0, 187500.0, 187500.0, 0.032, -0.008, 1.004, 192.0, 0.0, 0.0, 0.0, 0.0, 0.0, 0.0, 0.0, 0.0, 0.0, 1.6946007069415765E9, 0.0, 2023-09-13 12:25:06.941
226.0, 244.6174913188805, 187500.0, 187500.0, 187500.0, 187500.0, 187500.0, 187500.0, 187500.0, 0.028, -0.008, 1.008, 192.0, 0.0, 224.0, 255.0, 192.0, 31.0, 128.0, 0.0, 0.0, 0.0, 1.6946007069416032E9, 0.0, 2023-09-13 12:25:06.941
227.0, 264.309378184006, 187500.0, 187500.0, 187500.0, 187500.0, 187500.0, 187500.0, 187500.0, 0.028, -0.008, 1.008, 192.0, 0.0, 0.0, 0.0, 0.0, 0.0, 0.0, 0.0, 0.0, 0.0, 1.6946007069416668E9, 0.0, 2023-09-13 12:25:06.941
228.0, 117.25725141254085, 187500.0, 187500.0, 187500.0, 187500.0, 187500.0, 187500.0, 187500.0, 0.028, -0.008, 1.008, 192.0, 0.0, 0.0, 0.0, 0.0, 0.0, 0.0, 0.0, 0.0, 0.0, 1.6946007069417112E9, 0.0, 2023-09-13 12:25:06.941
229.0, -407.6287636314349, 187500.0, 187500.0, 187500.0, 187500.0, 187500.0, 187500.0, 187500.0, 0.028, -0.008, 1.008, 192.0, 0.0, 0.0, 0.0, 0.0, 0.0, 0.0, 0.0, 0.0, 0.0, 1.6946007069417548E9, 0.0, 2023-09-13 12:25:06.941
230.0, -528.0152592677188, 187500.0, 187500.0, 187500.0, 187500.0, 187500.0, 187500.0, 187500.0, 0.028, -0.008, 1.008, 192.0, 0.0, 0.0, 0.0, 0.0, 0.0, 0.0, 0.0, 0.0, 0.0, 1.694600706941876E9, 0.0, 2023-09-13 12:25:06.941
231.0, -495.0464361961408, 187500.0, 187500.0, 187500.0, 187500.0, 187500.0, 187500.0, 187500.0, 0.028, -0.008, 1.008, 192.0, 0.0, 0.0, 0.0, 0.0, 0.0, 0.0, 0.0, 0.0, 0.0, 1.6946007069419184E9, 0.0, 2023-09-13 12:25:06.941
232.0, -341.24408259917294, 187500.0, 187500.0, 187500.0, 187500.0, 187500.0, 187500.0, 187500.0, 0.028, -0.008, 1.008, 192.0, 0.0, 0.0, 0.0, 0.0, 0.0, 0.0, 0.0, 0.0, 0.0, 1.6946007069419627E9, 0.0, 2023-09-13 12:25:06.941
233.0, 118.59835607985927, 187500.0, 187500.0, 187500.0, 187500.0, 187500.0, 187500.0, 187500.0, 0.028, -0.008, 1.008, 192.0, 0.0, 0.0, 0.0, 0.0, 0.0, 0.0, 0.0, 0.0, 0.0, 1.6946007069420073E9, 0.0, 2023-09-13 12:25:06.942
234.0, 206.5971740004032, 187500.0, 187500.0, 187500.0, 187500.0, 187500.0, 187500.0, 187500.0, 0.028, -0.008, 1.008, 192.0, 0.0, 0.0, 0.0, 0.0, 0.0, 0.0, 0.0, 0.0, 0.0, 1.6946007069420538E9, 0.0, 2023-09-13 12:25:06.942
235.0, 208.65353449029143, 187500.0, 187500.0, 187500.0, 187500.0, 187500.0, 187500.0, 187500.0, 0.028, -0.008, 1.008, 192.0, 0.0, 0.0, 0.0, 0.0, 0.0, 0.0, 0.0, 0.0, 0.0, 1.6946007069421911E9, 0.0, 2023-09-13 12:25:06.942
236.0, 118.75481829104642, 187500.0, 187500.0, 187500.0, 187500.0, 187500.0, 187500.0, 187500.0, 0.028, -0.006, 1.0, 192.0, 0.0, 224.0, 255.0, 208.0, 31.0, 64.0, 0.0, 0.0, 0.0, 1.6946007069422984E9, 0.0, 2023-09-13 12:25:06.942
237.0, -348.9330826917986, 187500.0, 187500.0, 187500.0, 187500.0, 187500.0, 187500.0, 187500.0, 0.028, -0.006, 1.0, 192.0, 0.0, 0.0, 0.0, 0.0, 0.0, 0.0, 0.0, 0.0, 0.0, 1.6946007069423523E9, 0.0, 2023-09-13 12:25:06.942
238.0, -486.1504419029286, 187500.0, 187500.0, 187500.0, 187500.0, 187500.0, 187500.0, 187500.0, 0.028, -0.006, 1.0, 192.0, 0.0, 0.0, 0.0, 0.0, 0.0, 0.0, 0.0, 0.0, 0.0, 1.6946007069423816E9, 0.0, 2023-09-13 12:25:06.942
239.0, -521.3991429089479, 187500.0, 187500.0, 187500.0, 187500.0, 187500.0, 187500.0, 187500.0, 0.028, -0.006, 1.0, 192.0, 0.0, 0.0, 0.0, 0.0, 0.0, 0.0, 0.0, 0.0, 0.0, 1.694600706942408E9, 0.0, 2023-09-13 12:25:06.942
240.0, -406.84645257549914, 187500.0, 187500.0, 187500.0, 187500.0, 187500.0, 187500.0, 187500.0, 0.028, -0.006, 1.0, 192.0, 0.0, 0.0, 0.0, 0.0, 0.0, 0.0, 0.0, 0.0, 0.0, 1.694600706942434E9, 0.0, 2023-09-13 12:25:06.942
241.0, 118.48659735758274, 187500.0, 187500.0, 187500.0, 187500.0, 187500.0, 187500.0, 187500.0, 0.028, -0.006, 1.0, 192.0, 0.0, 0.0, 0.0, 0.0, 0.0, 0.0, 0.0, 0.0, 0.0, 1.694600707416784E9, 0.0, 2023-09-13 12:25:07.416
242.0, 264.2646746950954, 187500.0, 187500.0, 187500.0, 187500.0, 187500.0, 187500.0, 187500.0, 0.028, -0.006, 1.0, 192.0, 0.0, 0.0, 0.0, 0.0, 0.0, 0.0, 0.0, 0.0, 0.0, 1.6946007074169664E9, 0.0, 2023-09-13 12:25:07.416
243.0, 247.85849426490003, 187500.0, 187500.0, 187500.0, 187500.0, 187500.0, 187500.0, 187500.0, 0.028, -0.006, 1.0, 192.0, 0.0, 0.0, 0.0, 0.0, 0.0, 0.0, 0.0, 0.0, 0.0, 1.6946007074171464E9, 0.0, 2023-09-13 12:25:07.417
244.0, 85.24955335254114, 187500.0, 187500.0, 187500.0, 187500.0, 187500.0, 187500.0, 187500.0, 0.028, -0.006, 1.0, 192.0, 0.0, 0.0, 0.0, 0.0, 0.0, 0.0, 0.0, 0.0, 0.0, 1.69460070741725E9, 0.0, 2023-09-13 12:25:07.417
245.0, -407.6287636314349, 187500.0, 187500.0, 187500.0, 187500.0, 187500.0, 187500.0, 187500.0, 0.028, -0.006, 1.0, 192.0, 0.0, 0.0, 0.0, 0.0, 0.0, 0.0, 0.0, 0.0, 0.0, 1.6946007074176164E9, 0.0, 2023-09-13 12:25:07.417
246.0, -495.2923053851492, 187500.0, 187500.0, 187500.0, 187500.0, 187500.0, 187500.0, 187500.0, 0.034, -0.004, 1.0, 192.0, 1.0, 16.0, 255.0, 224.0, 31.0, 64.0, 0.0, 0.0, 0.0, 1.6946007074176729E9, 0.0, 2023-09-13 12:25:07.417
247.0, -465.00569164820814, 187500.0, 187500.0, 187500.0, 187500.0, 187500.0, 187500.0, 187500.0, 0.034, -0.004, 1.0, 192.0, 0.0, 0.0, 0.0, 0.0, 0.0, 0.0, 0.0, 0.0, 0.0, 1.6946007074177299E9, 0.0, 2023-09-13 12:25:07.417
248.0, -364.7804695106113, 187500.0, 187500.0, 187500.0, 187500.0, 187500.0, 187500.0, 187500.0, 0.034, -0.004, 1.0, 192.0, 0.0, 0.0, 0.0, 0.0, 0.0, 0.0, 0.0, 0.0, 0.0, 1.6946007074178135E9, 0.0, 2023-09-13 12:25:07.417
249.0, 85.07073939689867, 187500.0, 187500.0, 187500.0, 187500.0, 187500.0, 187500.0, 187500.0, 0.034, -0.004, 1.0, 192.0, 0.0, 0.0, 0.0, 0.0, 0.0, 0.0, 0.0, 0.0, 0.0, 1.694600707417891E9, 0.0, 2023-09-13 12:25:07.417
250.0, 208.8994036792998, 187500.0, 187500.0, 187500.0, 187500.0, 187500.0, 187500.0, 187500.0, 0.034, -0.004, 1.0, 192.0, 0.0, 0.0, 0.0, 0.0, 0.0, 0.0, 0.0, 0.0, 0.0, 1.6946007074179468E9, 0.0, 2023-09-13 12:25:07.417
251.0, 242.33761338443918, 187500.0, 187500.0, 187500.0, 187500.0, 187500.0, 187500.0, 187500.0, 0.034, -0.004, 1.0, 192.0, 0.0, 0.0, 0.0, 0.0, 0.0, 0.0, 0.0, 0.0, 0.0, 1.6946007074179902E9, 0.0, 2023-09-13 12:25:07.417
252.0, 140.10073424586466, 187500.0, 187500.0, 187500.0, 187500.0, 187500.0, 187500.0, 187500.0, 0.034, -0.004, 1.0, 192.0, 0.0, 0.0, 0.0, 0.0, 0.0, 0.0, 0.0, 0.0, 0.0, 1.6946007074180353E9, 0.0, 2023-09-13 12:25:07.418
253.0, -370.6142748134464, 187500.0, 187500.0, 187500.0, 187500.0, 187500.0, 187500.0, 187500.0, 0.034, -0.004, 1.0, 192.0, 0.0, 0.0, 0.0, 0.0, 0.0, 0.0, 0.0, 0.0, 0.0, 1.6946007074180896E9, 0.0, 2023-09-13 12:25:07.418
254.0, -525.6906778443669, 187500.0, 187500.0, 187500.0, 187500.0, 187500.0, 187500.0, 187500.0, 0.034, -0.004, 1.0, 192.0, 0.0, 0.0, 0.0, 0.0, 0.0, 0.0, 0.0, 0.0, 0.0, 1.6946007074181418E9, 0.0, 2023-09-13 12:25:07.418
255.0, -524.3495731770483, 187500.0, 187500.0, 187500.0, 187500.0, 187500.0, 187500.0, 187500.0, 0.034, -0.004, 1.0, 192.0, 0.0, 0.0, 0.0, 0.0, 0.0, 0.0, 0.0, 0.0, 0.0, 1.6946007074182124E9, 0.0, 2023-09-13 12:25:07.418
0.0, -369.18376316830677, 187500.0, 187500.0, 187500.0, 187500.0, 187500.0, 187500.0, 187500.0, 0.03, -0.008, 1.0, 192.0, 0.0, 240.0, 255.0, 192.0, 31.0, 64.0, 0.0, 0.0, 0.0, 1.6946007074182792E9, 0.0, 2023-09-13 12:25:07.418
1.0, 149.95785355065507, 187500.0, 187500.0, 187500.0, 187500.0, 187500.0, 187500.0, 187500.0, 0.03, -0.008, 1.0, 192.0, 0.0, 0.0, 0.0, 0.0, 0.0, 0.0, 0.0, 0.0, 0.0, 1.6946007074183223E9, 0.0, 2023-09-13 12:25:07.418
2.0, 245.35509888590562, 187500.0, 187500.0, 187500.0, 187500.0, 187500.0, 187500.0, 187500.0, 0.03, -0.008, 1.0, 192.0, 0.0, 0.0, 0.0, 0.0, 0.0, 0.0, 0.0, 0.0, 0.0, 1.6946007074183643E9, 0.0, 2023-09-13 12:25:07.418
3.0, 211.60396475839195, 187500.0, 187500.0, 187500.0, 187500.0, 187500.0, 187500.0, 187500.0, 0.03, -0.008, 1.0, 192.0, 0.0, 0.0, 0.0, 0.0, 0.0, 0.0, 0.0, 0.0, 0.0, 1.694600707418411E9, 0.0, 2023-09-13 12:25:07.418
4.0, 80.86861143930095, 187500.0, 187500.0, 187500.0, 187500.0, 187500.0, 187500.0, 187500.0, 0.03, -0.008, 1.0, 192.0, 0.0, 0.0, 0.0, 0.0, 0.0, 0.0, 0.0, 0.0, 0.0, 1.6946007074184637E9, 0.0, 2023-09-13 12:25:07.418
5.0, -376.1798591828179, 187500.0, 187500.0, 187500.0, 187500.0, 187500.0, 187500.0, 187500.0, 0.03, -0.008, 1.0, 192.0, 0.0, 0.0, 0.0, 0.0, 0.0, 0.0, 0.0, 0.0, 0.0, 1.694600707418717E9, 0.0, 2023-09-13 12:25:07.418
6.0, -465.1174503704847, 187500.0, 187500.0, 187500.0, 187500.0, 187500.0, 187500.0, 187500.0, 0.03, -0.008, 1.0, 192.0, 0.0, 0.0, 0.0, 0.0, 0.0, 0.0, 0.0, 0.0, 0.0, 1.694600707418769E9, 0.0, 2023-09-13 12:25:07.418
7.0, -483.55763954611297, 187500.0, 187500.0, 187500.0, 187500.0, 187500.0, 187500.0, 187500.0, 0.03, -0.008, 1.0, 192.0, 0.0, 0.0, 0.0, 0.0, 0.0, 0.0, 0.0, 0.0, 0.0, 1.6946007074188292E9, 0.0, 2023-09-13 12:25:07.418
8.0, -400.9232402948428, 187500.0, 187500.0, 187500.0, 187500.0, 187500.0, 187500.0, 187500.0, 0.03, -0.008, 1.0, 192.0, 0.0, 0.0, 0.0, 0.0, 0.0, 0.0, 0.0, 0.0, 0.0, 1.694600707418934E9, 0.0, 2023-09-13 12:25:07.418
9.0, 81.82973645087915, 187500.0, 187500.0, 187500.0, 187500.0, 187500.0, 187500.0, 187500.0, 0.03, -0.008, 1.0, 192.0, 0.0, 0.0, 0.0, 0.0, 0.0, 0.0, 0.0, 0.0, 0.0, 1.6946007074190068E9, 0.0, 2023-09-13 12:25:07.419
10.0, 241.37648837286096, 187500.0, 187500.0, 187500.0, 187500.0, 187500.0, 187500.0, 187500.0, 0.032, -0.006, 1.002, 192.0, 1.0, 0.0, 255.0, 208.0, 31.0, 80.0, 0.0, 0.0, 0.0, 1.694600707419054E9, 0.0, 2023-09-13 12:25:07.419
11.0, 263.6611775948021, 187500.0, 187500.0, 187500.0, 187500.0, 187500.0, 187500.0, 187500.0, 0.032, -0.006, 1.002, 192.0, 0.0, 0.0, 0.0, 0.0, 0.0, 0.0, 0.0, 0.0, 0.0, 1.6946007074190984E9, 0.0, 2023-09-13 12:25:07.419
12.0, 120.87823401430059, 187500.0, 187500.0, 187500.0, 187500.0, 187500.0, 187500.0, 187500.0, 0.032, -0.006, 1.002, 192.0, 0.0, 0.0, 0.0, 0.0, 0.0, 0.0, 0.0, 0.0, 0.0, 1.6946007074191434E9, 0.0, 2023-09-13 12:25:07.419
13.0, -405.50534790818074, 187500.0, 187500.0, 187500.0, 187500.0, 187500.0, 187500.0, 187500.0, 0.032, -0.006, 1.002, 192.0, 0.0, 0.0, 0.0, 0.0, 0.0, 0.0, 0.0, 0.0, 0.0, 1.6946007074191883E9, 0.0, 2023-09-13 12:25:07.419
14.0, -525.265994699716, 187500.0, 187500.0, 187500.0, 187500.0, 187500.0, 187500.0, 187500.0, 0.032, -0.006, 1.002, 192.0, 0.0, 0.0, 0.0, 0.0, 0.0, 0.0, 0.0, 0.0, 0.0, 1.6946007074192717E9, 0.0, 2023-09-13 12:25:07.419
15.0, -493.23594489526096, 187500.0, 187500.0, 187500.0, 187500.0, 187500.0, 187500.0, 187500.0, 0.032, -0.006, 1.002, 192.0, 0.0, 0.0, 0.0, 0.0, 0.0, 0.0, 0.0, 0.0, 0.0, 1.6946007074193428E9, 0.0, 2023-09-13 12:25:07.419
16.0, -339.2547773426506, 187500.0, 187500.0, 187500.0, 187500.0, 187500.0, 187500.0, 187500.0, 0.032, -0.006, 1.002, 192.0, 0.0, 0.0, 0.0, 0.0, 0.0, 0.0, 0.0, 0.0, 0.0, 1.6946007074194033E9, 0.0, 2023-09-13 12:25:07.419
17.0, 124.14158870477543, 187500.0, 187500.0, 187500.0, 187500.0, 187500.0, 187500.0, 187500.0, 0.032, -0.006, 1.002, 192.0, 0.0, 0.0, 0.0, 0.0, 0.0, 0.0, 0.0, 0.0, 0.0, 1.694600707419448E9, 0.0, 2023-09-13 12:25:07.419
18.0, 212.45333104769364, 187500.0, 187500.0, 187500.0, 187500.0, 187500.0, 187500.0, 187500.0, 0.032, -0.006, 1.002, 192.0, 0.0, 0.0, 0.0, 0.0, 0.0, 0.0, 0.0, 0.0, 0.0, 1.6946007074194908E9, 0.0, 2023-09-13 12:25:07.419
19.0, 205.88191817783334, 187500.0, 187500.0, 187500.0, 187500.0, 187500.0, 187500.0, 187500.0, 0.028, -0.002, 1.004, 192.0, 0.0, 224.0, 255.0, 240.0, 31.0, 96.0, 0.0, 0.0, 0.0, 1.6946007074195378E9, 0.0, 2023-09-13 12:25:07.419
20.0, 114.46328335562747, 187500.0, 187500.0, 187500.0, 187500.0, 187500.0, 187500.0, 187500.0, 0.028, -0.002, 1.004, 192.0, 0.0, 0.0, 0.0, 0.0, 0.0, 0.0, 0.0, 0.0, 0.0, 1.6946007074197552E9, 0.0, 2023-09-13 12:25:07.419
21.0, -350.6988705037678, 187500.0, 187500.0, 187500.0, 187500.0, 187500.0, 187500.0, 187500.0, 0.028, -0.002, 1.004, 192.0, 0.0, 0.0, 0.0, 0.0, 0.0, 0.0, 0.0, 0.0, 0.0, 1.6946007074198234E9, 0.0, 2023-09-13 12:25:07.419
22.0, -484.63052327996775, 187500.0, 187500.0, 187500.0, 187500.0, 187500.0, 187500.0, 187500.0, 0.028, -0.002, 1.004, 192.0, 0.0, 0.0, 0.0, 0.0, 0.0, 0.0, 0.0, 0.0, 0.0, 1.6946007074198787E9, 0.0, 2023-09-13 12:25:07.419
23.0, -524.0590004991294, 187500.0, 187500.0, 187500.0, 187500.0, 187500.0, 187500.0, 187500.0, 0.028, -0.002, 1.004, 192.0, 0.0, 0.0, 0.0, 0.0, 0.0, 0.0, 0.0, 0.0, 0.0, 1.6946007074199247E9, 0.0, 2023-09-13 12:25:07.419
24.0, -404.83479557452154, 187500.0, 187500.0, 187500.0, 187500.0, 187500.0, 187500.0, 187500.0, 0.028, -0.002, 1.004, 192.0, 0.0, 0.0, 0.0, 0.0, 0.0, 0.0, 0.0, 0.0, 0.0, 1.6946007074199767E9, 0.0, 2023-09-13 12:25:07.419
25.0, 121.23586192558551, 187500.0, 187500.0, 187500.0, 187500.0, 187500.0, 187500.0, 187500.0, 0.028, -0.002, 1.004, 192.0, 0.0, 0.0, 0.0, 0.0, 0.0, 0.0, 0.0, 0.0, 0.0, 1.6946007074200363E9, 0.0, 2023-09-13 12:25:07.420
26.0, 265.5610758735032, 187500.0, 187500.0, 187500.0, 187500.0, 187500.0, 187500.0, 187500.0, 0.028, -0.002, 1.004, 192.0, 0.0, 0.0, 0.0, 0.0, 0.0, 0.0, 0.0, 0.0, 0.0, 1.6946007074200952E9, 0.0, 2023-09-13 12:25:07.420
27.0, 246.94207274223243, 187500.0, 187500.0, 187500.0, 187500.0, 187500.0, 187500.0, 187500.0, 0.028, -0.002, 1.004, 192.0, 0.0, 0.0, 0.0, 0.0, 0.0, 0.0, 0.0, 0.0, 0.0, 1.6946007074201524E9, 0.0, 2023-09-13 12:25:07.420
28.0, 82.83556495136797, 187500.0, 187500.0, 187500.0, 187500.0, 187500.0, 187500.0, 187500.0, 0.028, -0.002, 1.004, 192.0, 0.0, 0.0, 0.0, 0.0, 0.0, 0.0, 0.0, 0.0, 0.0, 1.6946007074202116E9, 0.0, 2023-09-13 12:25:07.420
29.0, -406.9582112977757, 187500.0, 187500.0, 187500.0, 187500.0, 187500.0, 187500.0, 187500.0, 0.03, -0.004, 1.006, 192.0, 0.0, 240.0, 255.0, 224.0, 31.0, 112.0, 0.0, 0.0, 0.0, 1.694600707420258E9, 0.0, 2023-09-13 12:25:07.420
30.0, -493.92884897337547, 187500.0, 187500.0, 187500.0, 187500.0, 187500.0, 187500.0, 187500.0, 0.03, -0.004, 1.006, 192.0, 0.0, 0.0, 0.0, 0.0, 0.0, 0.0, 0.0, 0.0, 0.0, 1.6946007074203055E9, 0.0, 2023-09-13 12:25:07.420
31.0, -468.3584533165042, 187500.0, 187500.0, 187500.0, 187500.0, 187500.0, 187500.0, 187500.0, 0.03, -0.004, 1.006, 192.0, 0.0, 0.0, 0.0, 0.0, 0.0, 0.0, 0.0, 0.0, 0.0, 1.6946007074203556E9, 0.0, 2023-09-13 12:25:07.420
32.0, -359.8407339859884, 187500.0, 187500.0, 187500.0, 187500.0, 187500.0, 187500.0, 187500.0, 0.03, -0.004, 1.006, 192.0, 0.0, 0.0, 0.0, 0.0, 0.0, 0.0, 0.0, 0.0, 0.0, 1.6946007074204082E9, 0.0, 2023-09-13 12:25:07.420
33.0, 89.5634400324154, 187500.0, 187500.0, 187500.0, 187500.0, 187500.0, 187500.0, 187500.0, 0.03, -0.004, 1.006, 192.0, 0.0, 0.0, 0.0, 0.0, 0.0, 0.0, 0.0, 0.0, 0.0, 1.6946007074204555E9, 0.0, 2023-09-13 12:25:07.420
34.0, 210.28521183552886, 187500.0, 187500.0, 187500.0, 187500.0, 187500.0, 187500.0, 187500.0, 0.03, -0.004, 1.006, 192.0, 0.0, 0.0, 0.0, 0.0, 0.0, 0.0, 0.0, 0.0, 0.0, 1.6946007074205027E9, 0.0, 2023-09-13 12:25:07.420
35.0, 246.04800296402016, 187500.0, 187500.0, 187500.0, 187500.0, 187500.0, 187500.0, 187500.0, 0.03, -0.004, 1.006, 192.0, 0.0, 0.0, 0.0, 0.0, 0.0, 0.0, 0.0, 0.0, 0.0, 1.6946007074206312E9, 0.0, 2023-09-13 12:25:07.420
36.0, 137.91026328924457, 187500.0, 187500.0, 187500.0, 187500.0, 187500.0, 187500.0, 187500.0, 0.03, -0.004, 1.006, 192.0, 0.0, 0.0, 0.0, 0.0, 0.0, 0.0, 0.0, 0.0, 0.0, 1.694600707420686E9, 0.0, 2023-09-13 12:25:07.420
37.0, -369.2955218905833, 187500.0, 187500.0, 187500.0, 187500.0, 187500.0, 187500.0, 187500.0, 0.03, -0.004, 1.006, 192.0, 0.0, 0.0, 0.0, 0.0, 0.0, 0.0, 0.0, 0.0, 0.0, 1.6946007074207456E9, 0.0, 2023-09-13 12:25:07.420
38.0, -523.6119656100233, 187500.0, 187500.0, 187500.0, 187500.0, 187500.0, 187500.0, 187500.0, 0.03, -0.004, 1.006, 192.0, 0.0, 0.0, 0.0, 0.0, 0.0, 0.0, 0.0, 0.0, 0.0, 1.694600707420816E9, 0.0, 2023-09-13 12:25:07.420
39.0, -532.5750151366013, 187500.0, 187500.0, 187500.0, 187500.0, 187500.0, 187500.0, 187500.0, 0.03, -0.008, 1.01, 192.0, 0.0, 240.0, 255.0, 192.0, 31.0, 144.0, 0.0, 0.0, 0.0, 1.6946007074208708E9, 0.0, 2023-09-13 12:25:07.420
40.0, -371.46364110274806, 187500.0, 187500.0, 187500.0, 187500.0, 187500.0, 187500.0, 187500.0, 0.03, -0.008, 1.01, 192.0, 0.0, 0.0, 0.0, 0.0, 0.0, 0.0, 0.0, 0.0, 0.0, 1.6946007074209251E9, 0.0, 2023-09-13 12:25:07.420
41.0, 149.3767081948171, 187500.0, 187500.0, 187500.0, 187500.0, 187500.0, 187500.0, 187500.0, 0.03, -0.008, 1.01, 192.0, 0.0, 0.0, 0.0, 0.0, 0.0, 0.0, 0.0, 0.0, 0.0, 1.69460070742097E9, 0.0, 2023-09-13 12:25:07.420
42.0, 245.2880436525397, 187500.0, 187500.0, 187500.0, 187500.0, 187500.0, 187500.0, 187500.0, 0.03, -0.008, 1.01, 192.0, 0.0, 0.0, 0.0, 0.0, 0.0, 0.0, 0.0, 0.0, 0.0, 1.6946007074210129E9, 0.0, 2023-09-13 12:25:07.421
43.0, 211.0898746359199, 187500.0, 187500.0, 187500.0, 187500.0, 187500.0, 187500.0, 187500.0, 0.03, -0.008, 1.01, 192.0, 0.0, 0.0, 0.0, 0.0, 0.0, 0.0, 0.0, 0.0, 0.0, 1.6946007074210567E9, 0.0, 2023-09-13 12:25:07.421
44.0, 80.73450097256911, 187500.0, 187500.0, 187500.0, 187500.0, 187500.0, 187500.0, 187500.0, 0.03, -0.008, 1.01, 192.0, 0.0, 0.0, 0.0, 0.0, 0.0, 0.0, 0.0, 0.0, 0.0, 1.694600707421104E9, 0.0, 2023-09-13 12:25:07.421
45.0, -378.75030979517817, 187500.0, 187500.0, 187500.0, 187500.0, 187500.0, 187500.0, 187500.0, 0.03, -0.008, 1.01, 192.0, 0.0, 0.0, 0.0, 0.0, 0.0, 0.0, 0.0, 0.0, 0.0, 1.6946007074211605E9, 0.0, 2023-09-13 12:25:07.421
46.0, -468.0008254052193, 187500.0, 187500.0, 187500.0, 187500.0, 187500.0, 187500.0, 187500.0, 0.03, -0.008, 1.01, 192.0, 0.0, 0.0, 0.0, 0.0, 0.0, 0.0, 0.0, 0.0, 0.0, 1.6946007074212239E9, 0.0, 2023-09-13 12:25:07.421
47.0, -481.14365114493984, 187500.0, 187500.0, 187500.0, 187500.0, 187500.0, 187500.0, 187500.0, 0.03, -0.008, 1.01, 192.0, 0.0, 0.0, 0.0, 0.0, 0.0, 0.0, 0.0, 0.0, 0.0, 1.69460070742128E9, 0.0, 2023-09-13 12:25:07.421
48.0, -397.7269408377339, 187500.0, 187500.0, 187500.0, 187500.0, 187500.0, 187500.0, 187500.0, 0.03, -0.008, 1.01, 192.0, 0.0, 0.0, 0.0, 0.0, 0.0, 0.0, 0.0, 0.0, 0.0, 1.6946007074213297E9, 0.0, 2023-09-13 12:25:07.421
49.0, 87.37296907579531, 187500.0, 187500.0, 187500.0, 187500.0, 187500.0, 187500.0, 187500.0, 0.028, -0.012, 1.004, 192.0, 0.0, 224.0, 255.0, 160.0, 31.0, 96.0, 0.0, 0.0, 0.0, 1.6946007074213831E9, 0.0, 2023-09-13 12:25:07.421
50.0, 240.99650871712075, 187500.0, 187500.0, 187500.0, 187500.0, 187500.0, 187500.0, 187500.0, 0.028, -0.012, 1.004, 192.0, 0.0, 0.0, 0.0, 0.0, 0.0, 0.0, 0.0, 0.0, 0.0, 1.6946007074214466E9, 0.0, 2023-09-13 12:25:07.421
51.0, 264.10821248390823, 187500.0, 187500.0, 187500.0, 187500.0, 187500.0, 187500.0, 187500.0, 0.028, -0.012, 1.004, 192.0, 0.0, 0.0, 0.0, 0.0, 0.0, 0.0, 0.0, 0.0, 0.0, 1.6946007074217885E9, 0.0, 2023-09-13 12:25:07.421
52.0, 118.93363224668889, 187500.0, 187500.0, 187500.0, 187500.0, 187500.0, 187500.0, 187500.0, 0.028, -0.012, 1.004, 192.0, 0.0, 0.0, 0.0, 0.0, 0.0, 0.0, 0.0, 0.0, 0.0, 1.6946007074218569E9, 0.0, 2023-09-13 12:25:07.421
53.0, -405.21477523026175, 187500.0, 187500.0, 187500.0, 187500.0, 187500.0, 187500.0, 187500.0, 0.028, -0.012, 1.004, 192.0, 0.0, 0.0, 0.0, 0.0, 0.0, 0.0, 0.0, 0.0, 0.0, 1.6946007074219203E9, 0.0, 2023-09-13 12:25:07.421
54.0, -525.5789191220903, 187500.0, 187500.0, 187500.0, 187500.0, 187500.0, 187500.0, 187500.0, 0.028, -0.012, 1.004, 192.0, 0.0, 0.0, 0.0, 0.0, 0.0, 0.0, 0.0, 0.0, 0.0, 1.6946007074219732E9, 0.0, 2023-09-13 12:25:07.421
55.0, -490.77725300517716, 187500.0, 187500.0, 187500.0, 187500.0, 187500.0, 187500.0, 187500.0, 0.028, -0.012, 1.004, 192.0, 0.0, 0.0, 0.0, 0.0, 0.0, 0.0, 0.0, 0.0, 0.0, 1.694600707422024E9, 0.0, 2023-09-13 12:25:07.422
56.0, -345.35680357894944, 187500.0, 187500.0, 187500.0, 187500.0, 187500.0, 187500.0, 187500.0, 0.028, -0.012, 1.004, 192.0, 0.0, 0.0, 0.0, 0.0, 0.0, 0.0, 0.0, 0.0, 0.0, 1.694600707422078E9, 0.0, 2023-09-13 12:25:07.422
57.0, 123.7616090490352, 187500.0, 187500.0, 187500.0, 187500.0, 187500.0, 187500.0, 187500.0, 0.028, -0.012, 1.004, 192.0, 0.0, 0.0, 0.0, 0.0, 0.0, 0.0, 0.0, 0.0, 0.0, 1.6946007074221315E9, 0.0, 2023-09-13 12:25:07.422
58.0, 214.10736013738637, 187500.0, 187500.0, 187500.0, 187500.0, 187500.0, 187500.0, 187500.0, 0.028, -0.012, 1.004, 192.0, 0.0, 0.0, 0.0, 0.0, 0.0, 0.0, 0.0, 0.0, 0.0, 1.694600707422192E9, 0.0, 2023-09-13 12:25:07.422
59.0, 205.16666235526353, 187500.0, 187500.0, 187500.0, 187500.0, 187500.0, 187500.0, 187500.0, 0.026000000000000002, -0.012, 1.002, 192.0, 0.0, 208.0, 255.0, 160.0, 31.0, 80.0, 0.0, 0.0, 0.0, 1.6946007074222462E9, 0.0, 2023-09-13 12:25:07.422
60.0, 113.14453043276436, 187500.0, 187500.0, 187500.0, 187500.0, 187500.0, 187500.0, 187500.0, 0.026000000000000002, -0.012, 1.002, 192.0, 0.0, 0.0, 0.0, 0.0, 0.0, 0.0, 0.0, 0.0, 0.0, 1.6946007074223E9, 0.0, 2023-09-13 12:25:07.422
61.0, -352.62112052692424, 187500.0, 187500.0, 187500.0, 187500.0, 187500.0, 187500.0, 187500.0, 0.026000000000000002, -0.012, 1.002, 192.0, 0.0, 0.0, 0.0, 0.0, 0.0, 0.0, 0.0, 0.0, 0.0, 1.6946007074223516E9, 0.0, 2023-09-13 12:25:07.422
62.0, -485.1222616579845, 187500.0, 187500.0, 187500.0, 187500.0, 187500.0, 187500.0, 187500.0, 0.026000000000000002, -0.012, 1.002, 192.0, 0.0, 0.0, 0.0, 0.0, 0.0, 0.0, 0.0, 0.0, 0.0, 1.694600707422403E9, 0.0, 2023-09-13 12:25:07.422
63.0, -524.8636632995205, 187500.0, 187500.0, 187500.0, 187500.0, 187500.0, 187500.0, 187500.0, 0.026000000000000002, -0.012, 1.002, 192.0, 0.0, 0.0, 0.0, 0.0, 0.0, 0.0, 0.0, 0.0, 0.0, 1.6946007074224548E9, 0.0, 2023-09-13 12:25:07.422
64.0, -400.11857749445176, 187500.0, 187500.0, 187500.0, 187500.0, 187500.0, 187500.0, 187500.0, 0.026000000000000002, -0.012, 1.002, 192.0, 0.0, 0.0, 0.0, 0.0, 0.0, 0.0, 0.0, 0.0, 0.0, 1.6946007074225109E9, 0.0, 2023-09-13 12:25:07.422
65.0, 121.41467588122796, 187500.0, 187500.0, 187500.0, 187500.0, 187500.0, 187500.0, 187500.0, 0.026000000000000002, -0.012, 1.002, 192.0, 0.0, 0.0, 0.0, 0.0, 0.0, 0.0, 0.0, 0.0, 0.0, 1.694600707422565E9, 0.0, 2023-09-13 12:25:07.422
66.0, 266.56690437399203, 187500.0, 187500.0, 187500.0, 187500.0, 187500.0, 187500.0, 187500.0, 0.026000000000000002, -0.012, 1.002, 192.0, 0.0, 0.0, 0.0, 0.0, 0.0, 0.0, 0.0, 0.0, 0.0, 1.6946007074228017E9, 0.0, 2023-09-13 12:25:07.422
67.0, 249.7136890546905, 187500.0, 187500.0, 187500.0, 187500.0, 187500.0, 187500.0, 187500.0, 0.026000000000000002, -0.012, 1.002, 192.0, 0.0, 0.0, 0.0, 0.0, 0.0, 0.0, 0.0, 0.0, 0.0, 1.6946007074228547E9, 0.0, 2023-09-13 12:25:07.422
68.0, 83.2378963515635, 187500.0, 187500.0, 187500.0, 187500.0, 187500.0, 187500.0, 187500.0, 0.026000000000000002, -0.012, 1.002, 192.0, 0.0, 0.0, 0.0, 0.0, 0.0, 0.0, 0.0, 0.0, 0.0, 1.694600707422902E9, 0.0, 2023-09-13 12:25:07.422
69.0, -413.7084381232784, 187500.0, 187500.0, 187500.0, 187500.0, 187500.0, 187500.0, 187500.0, 0.026000000000000002, -0.014, 1.004, 192.0, 0.0, 208.0, 255.0, 144.0, 31.0, 96.0, 0.0, 0.0, 0.0, 1.694600707422952E9, 0.0, 2023-09-13 12:25:07.422
70.0, -494.84527049604304, 187500.0, 187500.0, 187500.0, 187500.0, 187500.0, 187500.0, 187500.0, 0.026000000000000002, -0.014, 1.004, 192.0, 0.0, 0.0, 0.0, 0.0, 0.0, 0.0, 0.0, 0.0, 0.0, 1.6946007074230027E9, 0.0, 2023-09-13 12:25:07.423
71.0, -464.67041548137854, 187500.0, 187500.0, 187500.0, 187500.0, 187500.0, 187500.0, 187500.0, 0.026000000000000002, -0.014, 1.004, 192.0, 0.0, 0.0, 0.0, 0.0, 0.0, 0.0, 0.0, 0.0, 0.0, 1.694600707423051E9, 0.0, 2023-09-13 12:25:07.423
72.0, -357.49380081818117, 187500.0, 187500.0, 187500.0, 187500.0, 187500.0, 187500.0, 187500.0, 0.026000000000000002, -0.014, 1.004, 192.0, 0.0, 0.0, 0.0, 0.0, 0.0, 0.0, 0.0, 0.0, 0.0, 1.6946007074231048E9, 0.0, 2023-09-13 12:25:07.423
73.0, 93.31853310090699, 187500.0, 187500.0, 187500.0, 187500.0, 187500.0, 187500.0, 187500.0, 0.026000000000000002, -0.014, 1.004, 192.0, 0.0, 0.0, 0.0, 0.0, 0.0, 0.0, 0.0, 0.0, 0.0, 1.6946007074231572E9, 0.0, 2023-09-13 12:25:07.423
74.0, 207.51359552307076, 187500.0, 187500.0, 187500.0, 187500.0, 187500.0, 187500.0, 187500.0, 0.026000000000000002, -0.014, 1.004, 192.0, 0.0, 0.0, 0.0, 0.0, 0.0, 0.0, 0.0, 0.0, 0.0, 1.6946007074232905E9, 0.0, 2023-09-13 12:25:07.423
75.0, 242.27055815107326, 187500.0, 187500.0, 187500.0, 187500.0, 187500.0, 187500.0, 187500.0, 0.026000000000000002, -0.014, 1.004, 192.0, 0.0, 0.0, 0.0, 0.0, 0.0, 0.0, 0.0, 0.0, 0.0, 1.694600707423349E9, 0.0, 2023-09-13 12:25:07.423
76.0, 141.7771150800127, 187500.0, 187500.0, 187500.0, 187500.0, 187500.0, 187500.0, 187500.0, 0.026000000000000002, -0.014, 1.004, 192.0, 0.0, 0.0, 0.0, 0.0, 0.0, 0.0, 0.0, 0.0, 0.0, 1.694600707423395E9, 0.0, 2023-09-13 12:25:07.423
77.0, -368.110879434452, 187500.0, 187500.0, 187500.0, 187500.0, 187500.0, 187500.0, 187500.0, 0.026000000000000002, -0.014, 1.004, 192.0, 0.0, 0.0, 0.0, 0.0, 0.0, 0.0, 0.0, 0.0, 0.0, 1.6946007074234376E9, 0.0, 2023-09-13 12:25:07.423
78.0, -523.3213929321042, 187500.0, 187500.0, 187500.0, 187500.0, 187500.0, 187500.0, 187500.0, 0.026000000000000002, -0.014, 1.004, 192.0, 0.0, 0.0, 0.0, 0.0, 0.0, 0.0, 0.0, 0.0, 0.0, 1.6946007074234807E9, 0.0, 2023-09-13 12:25:07.423
79.0, -527.9258522898975, 187500.0, 187500.0, 187500.0, 187500.0, 187500.0, 187500.0, 187500.0, 0.038, -0.008, 1.004, 192.0, 1.0, 48.0, 255.0, 192.0, 31.0, 96.0, 0.0, 0.0, 0.0, 1.694600707423526E9, 0.0, 2023-09-13 12:25:07.423
80.0, -363.1040886764632, 187500.0, 187500.0, 187500.0, 187500.0, 187500.0, 187500.0, 187500.0, 0.038, -0.008, 1.004, 192.0, 0.0, 0.0, 0.0, 0.0, 0.0, 0.0, 0.0, 0.0, 0.0, 1.6946007074235733E9, 0.0, 2023-09-13 12:25:07.423
81.0, 146.42627792671658, 187500.0, 187500.0, 187500.0, 187500.0, 187500.0, 187500.0, 187500.0, 0.038, -0.008, 1.004, 192.0, 0.0, 0.0, 0.0, 0.0, 0.0, 0.0, 0.0, 0.0, 0.0, 1.694600707423888E9, 0.0, 2023-09-13 12:25:07.423
82.0, 248.48434310964862, 187500.0, 187500.0, 187500.0, 187500.0, 187500.0, 187500.0, 187500.0, 0.038, -0.008, 1.004, 192.0, 0.0, 0.0, 0.0, 0.0, 0.0, 0.0, 0.0, 0.0, 0.0, 1.6946007074239535E9, 0.0, 2023-09-13 12:25:07.423
83.0, 212.2968688365065, 187500.0, 187500.0, 187500.0, 187500.0, 187500.0, 187500.0, 187500.0, 0.038, -0.008, 1.004, 192.0, 0.0, 0.0, 0.0, 0.0, 0.0, 0.0, 0.0, 0.0, 0.0, 1.6946007074240007E9, 0.0, 2023-09-13 12:25:07.424
84.0, 80.57803876138196, 187500.0, 187500.0, 187500.0, 187500.0, 187500.0, 187500.0, 187500.0, 0.038, -0.008, 1.004, 192.0, 0.0, 0.0, 0.0, 0.0, 0.0, 0.0, 0.0, 0.0, 0.0, 1.6946007074240499E9, 0.0, 2023-09-13 12:25:07.424
85.0, -377.34214989449384, 187500.0, 187500.0, 187500.0, 187500.0, 187500.0, 187500.0, 187500.0, 0.038, -0.008, 1.004, 192.0, 0.0, 0.0, 0.0, 0.0, 0.0, 0.0, 0.0, 0.0, 0.0, 1.6946007074240935E9, 0.0, 2023-09-13 12:25:07.424
86.0, -469.9901306617416, 187500.0, 187500.0, 187500.0, 187500.0, 187500.0, 187500.0, 187500.0, 0.038, -0.008, 1.004, 192.0, 0.0, 0.0, 0.0, 0.0, 0.0, 0.0, 0.0, 0.0, 0.0, 1.694600707424134E9, 0.0, 2023-09-13 12:25:07.424
87.0, -482.84238372354315, 187500.0, 187500.0, 187500.0, 187500.0, 187500.0, 187500.0, 187500.0, 0.038, -0.008, 1.004, 192.0, 0.0, 0.0, 0.0, 0.0, 0.0, 0.0, 0.0, 0.0, 0.0, 1.6946007074241817E9, 0.0, 2023-09-13 12:25:07.424
88.0, -400.9008885503875, 187500.0, 187500.0, 187500.0, 187500.0, 187500.0, 187500.0, 187500.0, 0.038, -0.008, 1.004, 192.0, 0.0, 0.0, 0.0, 0.0, 0.0, 0.0, 0.0, 0.0, 0.0, 1.6946007074242315E9, 0.0, 2023-09-13 12:25:07.424
89.0, 85.58482951937074, 187500.0, 187500.0, 187500.0, 187500.0, 187500.0, 187500.0, 187500.0, 0.036000000000000004, -0.01, 1.002, 192.0, 1.0, 32.0, 255.0, 176.0, 31.0, 80.0, 0.0, 0.0, 0.0, 1.6946007074242768E9, 0.0, 2023-09-13 12:25:07.424
90.0, 248.0820117094531, 187500.0, 187500.0, 187500.0, 187500.0, 187500.0, 187500.0, 187500.0, 0.036000000000000004, -0.01, 1.002, 192.0, 0.0, 0.0, 0.0, 0.0, 0.0, 0.0, 0.0, 0.0, 0.0, 1.6946007074243305E9, 0.0, 2023-09-13 12:25:07.424
91.0, 266.7457183296345, 187500.0, 187500.0, 187500.0, 187500.0, 187500.0, 187500.0, 187500.0, 0.036000000000000004, -0.01, 1.002, 192.0, 0.0, 0.0, 0.0, 0.0, 0.0, 0.0, 0.0, 0.0, 0.0, 1.6946007074243758E9, 0.0, 2023-09-13 12:25:07.424
92.0, 120.2747369140073, 187500.0, 187500.0, 187500.0, 187500.0, 187500.0, 187500.0, 187500.0, 0.036000000000000004, -0.01, 1.002, 192.0, 0.0, 0.0, 0.0, 0.0, 0.0, 0.0, 0.0, 0.0, 0.0, 1.6946007074244308E9, 0.0, 2023-09-13 12:25:07.424
93.0, -403.76191184066676, 187500.0, 187500.0, 187500.0, 187500.0, 187500.0, 187500.0, 187500.0, 0.036000000000000004, -0.01, 1.002, 192.0, 0.0, 0.0, 0.0, 0.0, 0.0, 0.0, 0.0, 0.0, 0.0, 1.69460070742448E9, 0.0, 2023-09-13 12:25:07.424
94.0, -524.8636632995205, 187500.0, 187500.0, 187500.0, 187500.0, 187500.0, 187500.0, 187500.0, 0.036000000000000004, -0.01, 1.002, 192.0, 0.0, 0.0, 0.0, 0.0, 0.0, 0.0, 0.0, 0.0, 0.0, 1.69460070742453E9, 0.0, 2023-09-13 12:25:07.424
95.0, -490.2631628827051, 187500.0, 187500.0, 187500.0, 187500.0, 187500.0, 187500.0, 187500.0, 0.036000000000000004, -0.01, 1.002, 192.0, 0.0, 0.0, 0.0, 0.0, 0.0, 0.0, 0.0, 0.0, 0.0, 1.6946007074245837E9, 0.0, 2023-09-13 12:25:07.424
96.0, -345.8708937014215, 187500.0, 187500.0, 187500.0, 187500.0, 187500.0, 187500.0, 187500.0, 0.036000000000000004, -0.01, 1.002, 192.0, 0.0, 0.0, 0.0, 0.0, 0.0, 0.0, 0.0, 0.0, 0.0, 1.6946007074246383E9, 0.0, 2023-09-13 12:25:07.424
97.0, 129.7742283075128, 187500.0, 187500.0, 187500.0, 187500.0, 187500.0, 187500.0, 187500.0, 0.036000000000000004, -0.01, 1.002, 192.0, 0.0, 0.0, 0.0, 0.0, 0.0, 0.0, 0.0, 0.0, 0.0, 1.694600707424817E9, 0.0, 2023-09-13 12:25:07.424
98.0, 212.76625547006793, 187500.0, 187500.0, 187500.0, 187500.0, 187500.0, 187500.0, 187500.0, 0.036000000000000004, -0.01, 1.002, 192.0, 0.0, 0.0, 0.0, 0.0, 0.0, 0.0, 0.0, 0.0, 0.0, 1.6946007074248607E9, 0.0, 2023-09-13 12:25:07.424
99.0, 204.83138618843392, 187500.0, 187500.0, 187500.0, 187500.0, 187500.0, 187500.0, 187500.0, 0.032, -0.004, 0.998, 192.0, 1.0, 0.0, 255.0, 224.0, 31.0, 48.0, 0.0, 0.0, 0.0, 1.6946007074249103E9, 0.0, 2023-09-13 12:25:07.424
100.0, 110.28350714248505, 187500.0, 187500.0, 187500.0, 187500.0, 187500.0, 187500.0, 187500.0, 0.032, -0.004, 0.998, 192.0, 0.0, 0.0, 0.0, 0.0, 0.0, 0.0, 0.0, 0.0, 0.0, 1.694600707424962E9, 0.0, 2023-09-13 12:25:07.424
101.0, -345.9379489347874, 187500.0, 187500.0, 187500.0, 187500.0, 187500.0, 187500.0, 187500.0, 0.032, -0.004, 0.998, 192.0, 0.0, 0.0, 0.0, 0.0, 0.0, 0.0, 0.0, 0.0, 0.0, 1.694600707425017E9, 0.0, 2023-09-13 12:25:07.425
102.0, -483.11060465700683, 187500.0, 187500.0, 187500.0, 187500.0, 187500.0, 187500.0, 187500.0, 0.032, -0.004, 0.998, 192.0, 0.0, 0.0, 0.0, 0.0, 0.0, 0.0, 0.0, 0.0, 0.0, 1.694600707425064E9, 0.0, 2023-09-13 12:25:07.425
103.0, -521.2203289533054, 187500.0, 187500.0, 187500.0, 187500.0, 187500.0, 187500.0, 187500.0, 0.032, -0.004, 0.998, 192.0, 0.0, 0.0, 0.0, 0.0, 0.0, 0.0, 0.0, 0.0, 0.0, 1.6946007074251025E9, 0.0, 2023-09-13 12:25:07.425
104.0, -400.0291705166305, 187500.0, 187500.0, 187500.0, 187500.0, 187500.0, 187500.0, 187500.0, 0.032, -0.004, 0.998, 192.0, 0.0, 0.0, 0.0, 0.0, 0.0, 0.0, 0.0, 0.0, 0.0, 1.6946007074251416E9, 0.0, 2023-09-13 12:25:07.425
105.0, 119.20185318015257, 187500.0, 187500.0, 187500.0, 187500.0, 187500.0, 187500.0, 187500.0, 0.032, -0.004, 0.998, 192.0, 0.0, 0.0, 0.0, 0.0, 0.0, 0.0, 0.0, 0.0, 0.0, 1.694600707897608E9, 0.0, 2023-09-13 12:25:07.897
106.0, 267.01393926309817, 187500.0, 187500.0, 187500.0, 187500.0, 187500.0, 187500.0, 187500.0, 0.032, -0.004, 0.998, 192.0, 0.0, 0.0, 0.0, 0.0, 0.0, 0.0, 0.0, 0.0, 0.0, 1.6946007078978312E9, 0.0, 2023-09-13 12:25:07.897
107.0, 247.74673554262347, 187500.0, 187500.0, 187500.0, 187500.0, 187500.0, 187500.0, 187500.0, 0.032, -0.004, 0.998, 192.0, 0.0, 0.0, 0.0, 0.0, 0.0, 0.0, 0.0, 0.0, 0.0, 1.6946007078979244E9, 0.0, 2023-09-13 12:25:07.897
108.0, 84.89192544125622, 187500.0, 187500.0, 187500.0, 187500.0, 187500.0, 187500.0, 187500.0, 0.032, -0.004, 0.998, 192.0, 0.0, 0.0, 0.0, 0.0, 0.0, 0.0, 0.0, 0.0, 0.0, 1.6946007078979924E9, 0.0, 2023-09-13 12:25:07.897
109.0, -407.4275979313371, 187500.0, 187500.0, 187500.0, 187500.0, 187500.0, 187500.0, 187500.0, 0.032, -0.004, 1.002, 192.0, 1.0, 0.0, 255.0, 224.0, 31.0, 80.0, 0.0, 0.0, 0.0, 1.6946007078980772E9, 0.0, 2023-09-13 12:25:07.898
110.0, -494.0629594401073, 187500.0, 187500.0, 187500.0, 187500.0, 187500.0, 187500.0, 187500.0, 0.032, -0.004, 1.002, 192.0, 0.0, 0.0, 0.0, 0.0, 0.0, 0.0, 0.0, 0.0, 0.0, 1.6946007078981428E9, 0.0, 2023-09-13 12:25:07.898
111.0, -465.67624398186734, 187500.0, 187500.0, 187500.0, 187500.0, 187500.0, 187500.0, 187500.0, 0.032, -0.004, 1.002, 192.0, 0.0, 0.0, 0.0, 0.0, 0.0, 0.0, 0.0, 0.0, 0.0, 1.6946007078982027E9, 0.0, 2023-09-13 12:25:07.898
112.0, -361.1147834199409, 187500.0, 187500.0, 187500.0, 187500.0, 187500.0, 187500.0, 187500.0, 0.032, -0.004, 1.002, 192.0, 0.0, 0.0, 0.0, 0.0, 0.0, 0.0, 0.0, 0.0, 0.0, 1.6946007078984632E9, 0.0, 2023-09-13 12:25:07.898
113.0, 95.17372789069748, 187500.0, 187500.0, 187500.0, 187500.0, 187500.0, 187500.0, 187500.0, 0.032, -0.004, 1.002, 192.0, 0.0, 0.0, 0.0, 0.0, 0.0, 0.0, 0.0, 0.0, 0.0, 1.6946007078985312E9, 0.0, 2023-09-13 12:25:07.898
114.0, 210.37461881335008, 187500.0, 187500.0, 187500.0, 187500.0, 187500.0, 187500.0, 187500.0, 0.032, -0.004, 1.002, 192.0, 0.0, 0.0, 0.0, 0.0, 0.0, 0.0, 0.0, 0.0, 0.0, 1.6946007078985755E9, 0.0, 2023-09-13 12:25:07.898
115.0, 241.5105988395928, 187500.0, 187500.0, 187500.0, 187500.0, 187500.0, 187500.0, 187500.0, 0.032, -0.004, 1.002, 192.0, 0.0, 0.0, 0.0, 0.0, 0.0, 0.0, 0.0, 0.0, 0.0, 1.6946007078986185E9, 0.0, 2023-09-13 12:25:07.898
116.0, 137.9773185226105, 187500.0, 187500.0, 187500.0, 187500.0, 187500.0, 187500.0, 187500.0, 0.032, -0.004, 1.002, 192.0, 0.0, 0.0, 0.0, 0.0, 0.0, 0.0, 0.0, 0.0, 0.0, 1.694600707898663E9, 0.0, 2023-09-13 12:25:07.898
117.0, -370.05548120206373, 187500.0, 187500.0, 187500.0, 187500.0, 187500.0, 187500.0, 187500.0, 0.032, -0.004, 1.002, 192.0, 0.0, 0.0, 0.0, 0.0, 0.0, 0.0, 0.0, 0.0, 0.0, 1.6946007078987625E9, 0.0, 2023-09-13 12:25:07.898
118.0, -514.492453872258, 187500.0, 187500.0, 187500.0, 187500.0, 187500.0, 187500.0, 187500.0, 0.032, -0.004, 1.002, 192.0, 0.0, 0.0, 0.0, 0.0, 0.0, 0.0, 0.0, 0.0, 0.0, 1.694600707898819E9, 0.0, 2023-09-13 12:25:07.898
119.0, -524.2378144547719, 187500.0, 187500.0, 187500.0, 187500.0, 187500.0, 187500.0, 187500.0, 0.032, -0.012, 0.998, 192.0, 1.0, 0.0, 255.0, 160.0, 31.0, 48.0, 0.0, 0.0, 0.0, 1.6946007078988736E9, 0.0, 2023-09-13 12:25:07.898
120.0, -371.9553794807648, 187500.0, 187500.0, 187500.0, 187500.0, 187500.0, 187500.0, 187500.0, 0.032, -0.012, 0.998, 192.0, 0.0, 0.0, 0.0, 0.0, 0.0, 0.0, 0.0, 0.0, 0.0, 1.6946007078989108E9, 0.0, 2023-09-13 12:25:07.898
121.0, 146.8286093269121, 187500.0, 187500.0, 187500.0, 187500.0, 187500.0, 187500.0, 187500.0, 0.032, -0.012, 0.998, 192.0, 0.0, 0.0, 0.0, 0.0, 0.0, 0.0, 0.0, 0.0, 0.0, 1.694600707898938E9, 0.0, 2023-09-13 12:25:07.898
122.0, 245.8691890083777, 187500.0, 187500.0, 187500.0, 187500.0, 187500.0, 187500.0, 187500.0, 0.032, -0.012, 0.998, 192.0, 0.0, 0.0, 0.0, 0.0, 0.0, 0.0, 0.0, 0.0, 0.0, 1.694600707898964E9, 0.0, 2023-09-13 12:25:07.898
123.0, 213.9508979261992, 187500.0, 187500.0, 187500.0, 187500.0, 187500.0, 187500.0, 187500.0, 0.032, -0.012, 0.998, 192.0, 0.0, 0.0, 0.0, 0.0, 0.0, 0.0, 0.0, 0.0, 0.0, 1.6946007078989897E9, 0.0, 2023-09-13 12:25:07.898
124.0, 79.16987886069762, 187500.0, 187500.0, 187500.0, 187500.0, 187500.0, 187500.0, 187500.0, 0.032, -0.012, 0.998, 192.0, 0.0, 0.0, 0.0, 0.0, 0.0, 0.0, 0.0, 0.0, 0.0, 1.6946007078990152E9, 0.0, 2023-09-13 12:25:07.899
125.0, -376.0681004605413, 187500.0, 187500.0, 187500.0, 187500.0, 187500.0, 187500.0, 187500.0, 0.032, -0.012, 0.998, 192.0, 0.0, 0.0, 0.0, 0.0, 0.0, 0.0, 0.0, 0.0, 0.0, 1.694600707899044E9, 0.0, 2023-09-13 12:25:07.899
126.0, -463.8434009365322, 187500.0, 187500.0, 187500.0, 187500.0, 187500.0, 187500.0, 187500.0, 0.032, -0.012, 0.998, 192.0, 0.0, 0.0, 0.0, 0.0, 0.0, 0.0, 0.0, 0.0, 0.0, 1.6946007078990817E9, 0.0, 2023-09-13 12:25:07.899
127.0, -480.9424854448421, 187500.0, 187500.0, 187500.0, 187500.0, 187500.0, 187500.0, 187500.0, 0.032, -0.012, 0.998, 192.0, 0.0, 0.0, 0.0, 0.0, 0.0, 0.0, 0.0, 0.0, 0.0, 1.6946007078992565E9, 0.0, 2023-09-13 12:25:07.899
128.0, -396.8775745484322, 187500.0, 187500.0, 187500.0, 187500.0, 187500.0, 187500.0, 187500.0, 0.032, -0.012, 0.998, 192.0, 0.0, 0.0, 0.0, 0.0, 0.0, 0.0, 0.0, 0.0, 0.0, 1.6946007078992841E9, 0.0, 2023-09-13 12:25:07.899
129.0, 89.09405339885396, 187500.0, 187500.0, 187500.0, 187500.0, 187500.0, 187500.0, 187500.0, 0.036000000000000004, -0.01, 1.006, 192.0, 1.0, 32.0, 255.0, 176.0, 31.0, 112.0, 0.0, 0.0, 0.0, 1.69460070789931E9, 0.0, 2023-09-13 12:25:07.899
130.0, 245.01982271907602, 187500.0, 187500.0, 187500.0, 187500.0, 187500.0, 187500.0, 187500.0, 0.036000000000000004, -0.01, 1.006, 192.0, 0.0, 0.0, 0.0, 0.0, 0.0, 0.0, 0.0, 0.0, 0.0, 1.6946007078993382E9, 0.0, 2023-09-13 12:25:07.899
131.0, 269.11500324189706, 187500.0, 187500.0, 187500.0, 187500.0, 187500.0, 187500.0, 187500.0, 0.036000000000000004, -0.01, 1.006, 192.0, 0.0, 0.0, 0.0, 0.0, 0.0, 0.0, 0.0, 0.0, 0.0, 1.6946007078993635E9, 0.0, 2023-09-13 12:25:07.899
132.0, 122.08522821488718, 187500.0, 187500.0, 187500.0, 187500.0, 187500.0, 187500.0, 187500.0, 0.036000000000000004, -0.01, 1.006, 192.0, 0.0, 0.0, 0.0, 0.0, 0.0, 0.0, 0.0, 0.0, 0.0, 1.69460070789939E9, 0.0, 2023-09-13 12:25:07.899
133.0, -403.02430427364163, 187500.0, 187500.0, 187500.0, 187500.0, 187500.0, 187500.0, 187500.0, 0.036000000000000004, -0.01, 1.006, 192.0, 0.0, 0.0, 0.0, 0.0, 0.0, 0.0, 0.0, 0.0, 0.0, 1.6946007078994184E9, 0.0, 2023-09-13 12:25:07.899
134.0, -520.6168318530121, 187500.0, 187500.0, 187500.0, 187500.0, 187500.0, 187500.0, 187500.0, 0.036000000000000004, -0.01, 1.006, 192.0, 0.0, 0.0, 0.0, 0.0, 0.0, 0.0, 0.0, 0.0, 0.0, 1.694600707899448E9, 0.0, 2023-09-13 12:25:07.899
135.0, -497.4157211084034, 187500.0, 187500.0, 187500.0, 187500.0, 187500.0, 187500.0, 187500.0, 0.036000000000000004, -0.01, 1.006, 192.0, 0.0, 0.0, 0.0, 0.0, 0.0, 0.0, 0.0, 0.0, 0.0, 1.6946007078994782E9, 0.0, 2023-09-13 12:25:07.899
136.0, -346.42968731280416, 187500.0, 187500.0, 187500.0, 187500.0, 187500.0, 187500.0, 187500.0, 0.036000000000000004, -0.01, 1.006, 192.0, 0.0, 0.0, 0.0, 0.0, 0.0, 0.0, 0.0, 0.0, 0.0, 1.694600707899505E9, 0.0, 2023-09-13 12:25:07.899
137.0, 132.5234928755156, 187500.0, 187500.0, 187500.0, 187500.0, 187500.0, 187500.0, 187500.0, 0.036000000000000004, -0.01, 1.006, 192.0, 0.0, 0.0, 0.0, 0.0, 0.0, 0.0, 0.0, 0.0, 0.0, 1.6946007078995335E9, 0.0, 2023-09-13 12:25:07.899
138.0, 212.07335139195342, 187500.0, 187500.0, 187500.0, 187500.0, 187500.0, 187500.0, 187500.0, 0.036000000000000004, -0.01, 1.006, 192.0, 0.0, 0.0, 0.0, 0.0, 0.0, 0.0, 0.0, 0.0, 0.0, 1.6946007078995624E9, 0.0, 2023-09-13 12:25:07.899
139.0, 203.91496466576632, 187500.0, 187500.0, 187500.0, 187500.0, 187500.0, 187500.0, 187500.0, 0.032, -0.004, 1.01, 192.0, 1.0, 0.0, 255.0, 224.0, 31.0, 144.0, 0.0, 0.0, 0.0, 1.694600707899592E9, 0.0, 2023-09-13 12:25:07.899
140.0, 111.4010943652504, 187500.0, 187500.0, 187500.0, 187500.0, 187500.0, 187500.0, 187500.0, 0.032, -0.004, 1.01, 192.0, 0.0, 0.0, 0.0, 0.0, 0.0, 0.0, 0.0, 0.0, 0.0, 1.6946007078996184E9, 0.0, 2023-09-13 12:25:07.899
141.0, -346.04970765706395, 187500.0, 187500.0, 187500.0, 187500.0, 187500.0, 187500.0, 187500.0, 0.032, -0.004, 1.01, 192.0, 0.0, 0.0, 0.0, 0.0, 0.0, 0.0, 0.0, 0.0, 0.0, 1.694600707899644E9, 0.0, 2023-09-13 12:25:07.899
142.0, -482.86473546799846, 187500.0, 187500.0, 187500.0, 187500.0, 187500.0, 187500.0, 187500.0, 0.032, -0.004, 1.01, 192.0, 0.0, 0.0, 0.0, 0.0, 0.0, 0.0, 0.0, 0.0, 0.0, 1.6946007078996696E9, 0.0, 2023-09-13 12:25:07.899
143.0, -519.879224285987, 187500.0, 187500.0, 187500.0, 187500.0, 187500.0, 187500.0, 187500.0, 0.032, -0.004, 1.01, 192.0, 0.0, 0.0, 0.0, 0.0, 0.0, 0.0, 0.0, 0.0, 0.0, 1.6946007078997638E9, 0.0, 2023-09-13 12:25:07.899
144.0, -405.93003105283157, 187500.0, 187500.0, 187500.0, 187500.0, 187500.0, 187500.0, 187500.0, 0.032, -0.004, 1.01, 192.0, 0.0, 0.0, 0.0, 0.0, 0.0, 0.0, 0.0, 0.0, 0.0, 1.6946007078998039E9, 0.0, 2023-09-13 12:25:07.899
145.0, 119.87240551381177, 187500.0, 187500.0, 187500.0, 187500.0, 187500.0, 187500.0, 187500.0, 0.032, -0.004, 1.01, 192.0, 0.0, 0.0, 0.0, 0.0, 0.0, 0.0, 0.0, 0.0, 0.0, 1.6946007078998358E9, 0.0, 2023-09-13 12:25:07.899
146.0, 266.7010148407239, 187500.0, 187500.0, 187500.0, 187500.0, 187500.0, 187500.0, 187500.0, 0.032, -0.004, 1.01, 192.0, 0.0, 0.0, 0.0, 0.0, 0.0, 0.0, 0.0, 0.0, 0.0, 1.6946007078998673E9, 0.0, 2023-09-13 12:25:07.899
147.0, 249.26665416558436, 187500.0, 187500.0, 187500.0, 187500.0, 187500.0, 187500.0, 187500.0, 0.032, -0.004, 1.01, 192.0, 0.0, 0.0, 0.0, 0.0, 0.0, 0.0, 0.0, 0.0, 0.0, 1.6946007078998966E9, 0.0, 2023-09-13 12:25:07.899
148.0, 84.42253880769478, 187500.0, 187500.0, 187500.0, 187500.0, 187500.0, 187500.0, 187500.0, 0.032, -0.012, 1.006, 192.0, 1.0, 0.0, 255.0, 160.0, 31.0, 112.0, 0.0, 0.0, 0.0, 1.6946007078999267E9, 0.0, 2023-09-13 12:25:07.899
149.0, -410.62389738844604, 187500.0, 187500.0, 187500.0, 187500.0, 187500.0, 187500.0, 187500.0, 0.032, -0.012, 1.006, 192.0, 0.0, 0.0, 0.0, 0.0, 0.0, 0.0, 0.0, 0.0, 0.0, 1.6946007078999624E9, 0.0, 2023-09-13 12:25:07.899
150.0, -491.6713227833895, 187500.0, 187500.0, 187500.0, 187500.0, 187500.0, 187500.0, 187500.0, 0.032, -0.012, 1.006, 192.0, 0.0, 0.0, 0.0, 0.0, 0.0, 0.0, 0.0, 0.0, 0.0, 1.6946007078999894E9, 0.0, 2023-09-13 12:25:07.899
151.0, -466.8608864379986, 187500.0, 187500.0, 187500.0, 187500.0, 187500.0, 187500.0, 187500.0, 0.032, -0.012, 1.006, 192.0, 0.0, 0.0, 0.0, 0.0, 0.0, 0.0, 0.0, 0.0, 0.0, 1.6946007079000149E9, 0.0, 2023-09-13 12:25:07.900
152.0, -361.6959287757789, 187500.0, 187500.0, 187500.0, 187500.0, 187500.0, 187500.0, 187500.0, 0.032, -0.012, 1.006, 192.0, 0.0, 0.0, 0.0, 0.0, 0.0, 0.0, 0.0, 0.0, 0.0, 1.694600707900041E9, 0.0, 2023-09-13 12:25:07.900
153.0, 94.9502104461444, 187500.0, 187500.0, 187500.0, 187500.0, 187500.0, 187500.0, 187500.0, 0.032, -0.012, 1.006, 192.0, 0.0, 0.0, 0.0, 0.0, 0.0, 0.0, 0.0, 0.0, 0.0, 1.694600707900068E9, 0.0, 2023-09-13 12:25:07.900
154.0, 211.0898746359199, 187500.0, 187500.0, 187500.0, 187500.0, 187500.0, 187500.0, 187500.0, 0.032, -0.012, 1.006, 192.0, 0.0, 0.0, 0.0, 0.0, 0.0, 0.0, 0.0, 0.0, 0.0, 1.6946007079000933E9, 0.0, 2023-09-13 12:25:07.900
155.0, 239.5883488164364, 187500.0, 187500.0, 187500.0, 187500.0, 187500.0, 187500.0, 187500.0, 0.032, -0.012, 1.006, 192.0, 0.0, 0.0, 0.0, 0.0, 0.0, 0.0, 0.0, 0.0, 0.0, 1.6946007079001205E9, 0.0, 2023-09-13 12:25:07.900
156.0, 141.06185925744288, 187500.0, 187500.0, 187500.0, 187500.0, 187500.0, 187500.0, 187500.0, 0.032, -0.012, 1.006, 192.0, 0.0, 0.0, 0.0, 0.0, 0.0, 0.0, 0.0, 0.0, 0.0, 1.6946007079001484E9, 0.0, 2023-09-13 12:25:07.900
157.0, -371.9330277363095, 187500.0, 187500.0, 187500.0, 187500.0, 187500.0, 187500.0, 187500.0, 0.032, -0.012, 1.006, 192.0, 0.0, 0.0, 0.0, 0.0, 0.0, 0.0, 0.0, 0.0, 0.0, 1.6946007079001763E9, 0.0, 2023-09-13 12:25:07.900
158.0, -516.8170352956099, 187500.0, 187500.0, 187500.0, 187500.0, 187500.0, 187500.0, 187500.0, 0.03, -0.008, 1.0, 192.0, 0.0, 240.0, 255.0, 192.0, 31.0, 64.0, 0.0, 0.0, 0.0, 1.6946007079003515E9, 0.0, 2023-09-13 12:25:07.900
159.0, -524.4166284104143, 187500.0, 187500.0, 187500.0, 187500.0, 187500.0, 187500.0, 187500.0, 0.03, -0.008, 1.0, 192.0, 0.0, 0.0, 0.0, 0.0, 0.0, 0.0, 0.0, 0.0, 0.0, 1.6946007079003792E9, 0.0, 2023-09-13 12:25:07.900
160.0, -367.9097137343542, 187500.0, 187500.0, 187500.0, 187500.0, 187500.0, 187500.0, 187500.0, 0.03, -0.008, 1.0, 192.0, 0.0, 0.0, 0.0, 0.0, 0.0, 0.0, 0.0, 0.0, 0.0, 1.694600707900406E9, 0.0, 2023-09-13 12:25:07.900
161.0, 148.57204539442606, 187500.0, 187500.0, 187500.0, 187500.0, 187500.0, 187500.0, 187500.0, 0.03, -0.008, 1.0, 192.0, 0.0, 0.0, 0.0, 0.0, 0.0, 0.0, 0.0, 0.0, 0.0, 1.6946007079004316E9, 0.0, 2023-09-13 12:25:07.900
162.0, 254.69812806822398, 187500.0, 187500.0, 187500.0, 187500.0, 187500.0, 187500.0, 187500.0, 0.03, -0.008, 1.0, 192.0, 0.0, 0.0, 0.0, 0.0, 0.0, 0.0, 0.0, 0.0, 0.0, 1.6946007079004576E9, 0.0, 2023-09-13 12:25:07.900
163.0, 214.30852583748413, 187500.0, 187500.0, 187500.0, 187500.0, 187500.0, 187500.0, 187500.0, 0.03, -0.008, 1.0, 192.0, 0.0, 0.0, 0.0, 0.0, 0.0, 0.0, 0.0, 0.0, 0.0, 1.6946007079004855E9, 0.0, 2023-09-13 12:25:07.900
164.0, 84.46724229660539, 187500.0, 187500.0, 187500.0, 187500.0, 187500.0, 187500.0, 187500.0, 0.03, -0.008, 1.0, 192.0, 0.0, 0.0, 0.0, 0.0, 0.0, 0.0, 0.0, 0.0, 0.0, 1.6946007079005146E9, 0.0, 2023-09-13 12:25:07.900
165.0, -375.55401033806925, 187500.0, 187500.0, 187500.0, 187500.0, 187500.0, 187500.0, 187500.0, 0.03, -0.008, 1.0, 192.0, 0.0, 0.0, 0.0, 0.0, 0.0, 0.0, 0.0, 0.0, 0.0, 1.6946007079005482E9, 0.0, 2023-09-13 12:25:07.900
166.0, -462.61405499149026, 187500.0, 187500.0, 187500.0, 187500.0, 187500.0, 187500.0, 187500.0, 0.03, -0.008, 1.0, 192.0, 0.0, 0.0, 0.0, 0.0, 0.0, 0.0, 0.0, 0.0, 0.0, 1.6946007079005814E9, 0.0, 2023-09-13 12:25:07.900
167.0, -485.7481105027331, 187500.0, 187500.0, 187500.0, 187500.0, 187500.0, 187500.0, 187500.0, 0.03, -0.008, 1.0, 192.0, 0.0, 0.0, 0.0, 0.0, 0.0, 0.0, 0.0, 0.0, 0.0, 1.694600707900614E9, 0.0, 2023-09-13 12:25:07.900
168.0, -399.7385978387115, 187500.0, 187500.0, 187500.0, 187500.0, 187500.0, 187500.0, 187500.0, 0.03, -0.01, 1.006, 192.0, 0.0, 240.0, 255.0, 176.0, 31.0, 112.0, 0.0, 0.0, 0.0, 1.6946007079006486E9, 0.0, 2023-09-13 12:25:07.900
169.0, 91.26217261101874, 187500.0, 187500.0, 187500.0, 187500.0, 187500.0, 187500.0, 187500.0, 0.03, -0.01, 1.006, 192.0, 0.0, 0.0, 0.0, 0.0, 0.0, 0.0, 0.0, 0.0, 0.0, 1.69460070790068E9, 0.0, 2023-09-13 12:25:07.900
170.0, 241.77881977305648, 187500.0, 187500.0, 187500.0, 187500.0, 187500.0, 187500.0, 187500.0, 0.03, -0.01, 1.006, 192.0, 0.0, 0.0, 0.0, 0.0, 0.0, 0.0, 0.0, 0.0, 0.0, 1.69460070790076E9, 0.0, 2023-09-13 12:25:07.900
171.0, 269.02559626407583, 187500.0, 187500.0, 187500.0, 187500.0, 187500.0, 187500.0, 187500.0, 0.03, -0.01, 1.006, 192.0, 0.0, 0.0, 0.0, 0.0, 0.0, 0.0, 0.0, 0.0, 0.0, 1.6946007079008024E9, 0.0, 2023-09-13 12:25:07.900
172.0, 125.70621081664692, 187500.0, 187500.0, 187500.0, 187500.0, 187500.0, 187500.0, 187500.0, 0.03, -0.01, 1.006, 192.0, 0.0, 0.0, 0.0, 0.0, 0.0, 0.0, 0.0, 0.0, 0.0, 1.6946007079008515E9, 0.0, 2023-09-13 12:25:07.900
173.0, -400.3197431945495, 187500.0, 187500.0, 187500.0, 187500.0, 187500.0, 187500.0, 187500.0, 0.03, -0.01, 1.006, 192.0, 0.0, 0.0, 0.0, 0.0, 0.0, 0.0, 0.0, 0.0, 0.0, 1.6946007079011216E9, 0.0, 2023-09-13 12:25:07.901
174.0, -523.3213929321042, 187500.0, 187500.0, 187500.0, 187500.0, 187500.0, 187500.0, 187500.0, 0.03, -0.01, 1.006, 192.0, 0.0, 0.0, 0.0, 0.0, 0.0, 0.0, 0.0, 0.0, 0.0, 1.6946007079011495E9, 0.0, 2023-09-13 12:25:07.901
175.0, -490.03964543815204, 187500.0, 187500.0, 187500.0, 187500.0, 187500.0, 187500.0, 187500.0, 0.03, -0.01, 1.006, 192.0, 0.0, 0.0, 0.0, 0.0, 0.0, 0.0, 0.0, 0.0, 0.0, 1.694600707901175E9, 0.0, 2023-09-13 12:25:07.901
176.0, -339.2324255981953, 187500.0, 187500.0, 187500.0, 187500.0, 187500.0, 187500.0, 187500.0, 0.03, -0.01, 1.006, 192.0, 0.0, 0.0, 0.0, 0.0, 0.0, 0.0, 0.0, 0.0, 0.0, 1.6946007079012E9, 0.0, 2023-09-13 12:25:07.901
177.0, 127.29318467297372, 187500.0, 187500.0, 187500.0, 187500.0, 187500.0, 187500.0, 187500.0, 0.03, -0.01, 1.006, 192.0, 0.0, 0.0, 0.0, 0.0, 0.0, 0.0, 0.0, 0.0, 0.0, 1.694600707901228E9, 0.0, 2023-09-13 12:25:07.901
178.0, 216.72251423865728, 187500.0, 187500.0, 187500.0, 187500.0, 187500.0, 187500.0, 187500.0, 0.024, -0.01, 1.008, 192.0, 0.0, 192.0, 255.0, 176.0, 31.0, 128.0, 0.0, 0.0, 0.0, 1.6946007079012558E9, 0.0, 2023-09-13 12:25:07.901
179.0, 209.5029007795931, 187500.0, 187500.0, 187500.0, 187500.0, 187500.0, 187500.0, 187500.0, 0.024, -0.01, 1.008, 192.0, 0.0, 0.0, 0.0, 0.0, 0.0, 0.0, 0.0, 0.0, 0.0, 1.6946007079012837E9, 0.0, 2023-09-13 12:25:07.901
180.0, 115.08913220037607, 187500.0, 187500.0, 187500.0, 187500.0, 187500.0, 187500.0, 187500.0, 0.024, -0.01, 1.008, 192.0, 0.0, 0.0, 0.0, 0.0, 0.0, 0.0, 0.0, 0.0, 0.0, 1.6946007079013112E9, 0.0, 2023-09-13 12:25:07.901
181.0, -348.4413443137818, 187500.0, 187500.0, 187500.0, 187500.0, 187500.0, 187500.0, 187500.0, 0.024, -0.01, 1.008, 192.0, 0.0, 0.0, 0.0, 0.0, 0.0, 0.0, 0.0, 0.0, 0.0, 1.6946007079013436E9, 0.0, 2023-09-13 12:25:07.901
182.0, -480.47309881128064, 187500.0, 187500.0, 187500.0, 187500.0, 187500.0, 187500.0, 187500.0, 0.024, -0.01, 1.008, 192.0, 0.0, 0.0, 0.0, 0.0, 0.0, 0.0, 0.0, 0.0, 0.0, 1.694600707901373E9, 0.0, 2023-09-13 12:25:07.901
183.0, -520.3709626640037, 187500.0, 187500.0, 187500.0, 187500.0, 187500.0, 187500.0, 187500.0, 0.024, -0.01, 1.008, 192.0, 0.0, 0.0, 0.0, 0.0, 0.0, 0.0, 0.0, 0.0, 0.0, 1.6946007079014015E9, 0.0, 2023-09-13 12:25:07.901
184.0, -399.89506004989863, 187500.0, 187500.0, 187500.0, 187500.0, 187500.0, 187500.0, 187500.0, 0.024, -0.01, 1.008, 192.0, 0.0, 0.0, 0.0, 0.0, 0.0, 0.0, 0.0, 0.0, 0.0, 1.6946007079014325E9, 0.0, 2023-09-13 12:25:07.901
185.0, 122.28639391498494, 187500.0, 187500.0, 187500.0, 187500.0, 187500.0, 187500.0, 187500.0, 0.024, -0.01, 1.008, 192.0, 0.0, 0.0, 0.0, 0.0, 0.0, 0.0, 0.0, 0.0, 0.0, 1.6946007079014623E9, 0.0, 2023-09-13 12:25:07.901
186.0, 266.63395960735795, 187500.0, 187500.0, 187500.0, 187500.0, 187500.0, 187500.0, 187500.0, 0.024, -0.01, 1.008, 192.0, 0.0, 0.0, 0.0, 0.0, 0.0, 0.0, 0.0, 0.0, 0.0, 1.6946007079014895E9, 0.0, 2023-09-13 12:25:07.901
187.0, 252.5747123449698, 187500.0, 187500.0, 187500.0, 187500.0, 187500.0, 187500.0, 187500.0, 0.024, -0.01, 1.008, 192.0, 0.0, 0.0, 0.0, 0.0, 0.0, 0.0, 0.0, 0.0, 0.0, 1.69460070790152E9, 0.0, 2023-09-13 12:25:07.901
188.0, 89.80930922142377, 187500.0, 187500.0, 187500.0, 187500.0, 187500.0, 187500.0, 187500.0, 0.026000000000000002, -0.008, 1.008, 192.0, 0.0, 208.0, 255.0, 192.0, 31.0, 128.0, 0.0, 0.0, 0.0, 1.6946007079016557E9, 0.0, 2023-09-13 12:25:07.901
189.0, -408.9251648098427, 187500.0, 187500.0, 187500.0, 187500.0, 187500.0, 187500.0, 187500.0, 0.026000000000000002, -0.008, 1.008, 192.0, 0.0, 0.0, 0.0, 0.0, 0.0, 0.0, 0.0, 0.0, 0.0, 1.6946007079017181E9, 0.0, 2023-09-13 12:25:07.901
190.0, -493.9512007178308, 187500.0, 187500.0, 187500.0, 187500.0, 187500.0, 187500.0, 187500.0, 0.026000000000000002, -0.008, 1.008, 192.0, 0.0, 0.0, 0.0, 0.0, 0.0, 0.0, 0.0, 0.0, 0.0, 1.6946007079017844E9, 0.0, 2023-09-13 12:25:07.901
191.0, -462.85992418049864, 187500.0, 187500.0, 187500.0, 187500.0, 187500.0, 187500.0, 187500.0, 0.026000000000000002, -0.008, 1.008, 192.0, 0.0, 0.0, 0.0, 0.0, 0.0, 0.0, 0.0, 0.0, 0.0, 1.6946007079018207E9, 0.0, 2023-09-13 12:25:07.901
192.0, -360.176010152818, 187500.0, 187500.0, 187500.0, 187500.0, 187500.0, 187500.0, 187500.0, 0.026000000000000002, -0.008, 1.008, 192.0, 0.0, 0.0, 0.0, 0.0, 0.0, 0.0, 0.0, 0.0, 0.0, 1.6946007079018488E9, 0.0, 2023-09-13 12:25:07.901
193.0, 99.84524248185664, 187500.0, 187500.0, 187500.0, 187500.0, 187500.0, 187500.0, 187500.0, 0.026000000000000002, -0.008, 1.008, 192.0, 0.0, 0.0, 0.0, 0.0, 0.0, 0.0, 0.0, 0.0, 0.0, 1.6946007079018762E9, 0.0, 2023-09-13 12:25:07.901
194.0, 208.5194240235596, 187500.0, 187500.0, 187500.0, 187500.0, 187500.0, 187500.0, 187500.0, 0.026000000000000002, -0.008, 1.008, 192.0, 0.0, 0.0, 0.0, 0.0, 0.0, 0.0, 0.0, 0.0, 0.0, 1.6946007079019043E9, 0.0, 2023-09-13 12:25:07.901
195.0, 238.18018891575207, 187500.0, 187500.0, 187500.0, 187500.0, 187500.0, 187500.0, 187500.0, 0.026000000000000002, -0.008, 1.008, 192.0, 0.0, 0.0, 0.0, 0.0, 0.0, 0.0, 0.0, 0.0, 0.0, 1.694600707901932E9, 0.0, 2023-09-13 12:25:07.901
196.0, 138.5584638784485, 187500.0, 187500.0, 187500.0, 187500.0, 187500.0, 187500.0, 187500.0, 0.026000000000000002, -0.008, 1.008, 192.0, 0.0, 0.0, 0.0, 0.0, 0.0, 0.0, 0.0, 0.0, 0.0, 1.694600707901961E9, 0.0, 2023-09-13 12:25:07.901
197.0, -369.72020503523413, 187500.0, 187500.0, 187500.0, 187500.0, 187500.0, 187500.0, 187500.0, 0.026000000000000002, -0.008, 1.008, 192.0, 0.0, 0.0, 0.0, 0.0, 0.0, 0.0, 0.0, 0.0, 0.0, 1.69460070790199E9, 0.0, 2023-09-13 12:25:07.901
198.0, -515.9676690063083, 187500.0, 187500.0, 187500.0, 187500.0, 187500.0, 187500.0, 187500.0, 0.026000000000000002, -0.004, 1.008, 192.0, 0.0, 208.0, 255.0, 224.0, 31.0, 128.0, 0.0, 0.0, 0.0, 1.6946007079020188E9, 0.0, 2023-09-13 12:25:07.902
199.0, -521.041514997663, 187500.0, 187500.0, 187500.0, 187500.0, 187500.0, 187500.0, 187500.0, 0.026000000000000002, -0.004, 1.008, 192.0, 0.0, 0.0, 0.0, 0.0, 0.0, 0.0, 0.0, 0.0, 0.0, 1.6946007079020486E9, 0.0, 2023-09-13 12:25:07.902
200.0, -372.06713820304134, 187500.0, 187500.0, 187500.0, 187500.0, 187500.0, 187500.0, 187500.0, 0.026000000000000002, -0.004, 1.008, 192.0, 0.0, 0.0, 0.0, 0.0, 0.0, 0.0, 0.0, 0.0, 0.0, 1.6946007079020758E9, 0.0, 2023-09-13 12:25:07.902
201.0, 149.62257738382547, 187500.0, 187500.0, 187500.0, 187500.0, 187500.0, 187500.0, 187500.0, 0.026000000000000002, -0.004, 1.008, 192.0, 0.0, 0.0, 0.0, 0.0, 0.0, 0.0, 0.0, 0.0, 0.0, 1.6946007079021034E9, 0.0, 2023-09-13 12:25:07.902
202.0, 254.65342457931337, 187500.0, 187500.0, 187500.0, 187500.0, 187500.0, 187500.0, 187500.0, 0.026000000000000002, -0.004, 1.008, 192.0, 0.0, 0.0, 0.0, 0.0, 0.0, 0.0, 0.0, 0.0, 0.0, 1.6946007079021327E9, 0.0, 2023-09-13 12:25:07.902
203.0, 214.66615374876903, 187500.0, 187500.0, 187500.0, 187500.0, 187500.0, 187500.0, 187500.0, 0.026000000000000002, -0.004, 1.008, 192.0, 0.0, 0.0, 0.0, 0.0, 0.0, 0.0, 0.0, 0.0, 0.0, 1.6946007079021628E9, 0.0, 2023-09-13 12:25:07.902
204.0, 84.4895940410607, 187500.0, 187500.0, 187500.0, 187500.0, 187500.0, 187500.0, 187500.0, 0.026000000000000002, -0.004, 1.008, 192.0, 0.0, 0.0, 0.0, 0.0, 0.0, 0.0, 0.0, 0.0, 0.0, 1.6946007079022613E9, 0.0, 2023-09-13 12:25:07.902
205.0, -375.57636208252455, 187500.0, 187500.0, 187500.0, 187500.0, 187500.0, 187500.0, 187500.0, 0.026000000000000002, -0.004, 1.008, 192.0, 0.0, 0.0, 0.0, 0.0, 0.0, 0.0, 0.0, 0.0, 0.0, 1.694600707902288E9, 0.0, 2023-09-13 12:25:07.902
206.0, -467.1738108603729, 187500.0, 187500.0, 187500.0, 187500.0, 187500.0, 187500.0, 187500.0, 0.026000000000000002, -0.004, 1.008, 192.0, 0.0, 0.0, 0.0, 0.0, 0.0, 0.0, 0.0, 0.0, 0.0, 1.6946007079023185E9, 0.0, 2023-09-13 12:25:07.902
207.0, -478.01440692119684, 187500.0, 187500.0, 187500.0, 187500.0, 187500.0, 187500.0, 187500.0, 0.026000000000000002, -0.004, 1.008, 192.0, 0.0, 0.0, 0.0, 0.0, 0.0, 0.0, 0.0, 0.0, 0.0, 1.6946007079023511E9, 0.0, 2023-09-13 12:25:07.902
208.0, -396.1176152369518, 187500.0, 187500.0, 187500.0, 187500.0, 187500.0, 187500.0, 187500.0, 0.034, -0.008, 1.006, 192.0, 1.0, 16.0, 255.0, 192.0, 31.0, 112.0, 0.0, 0.0, 0.0, 1.6946007079023814E9, 0.0, 2023-09-13 12:25:07.902
209.0, 90.92689644418913, 187500.0, 187500.0, 187500.0, 187500.0, 187500.0, 187500.0, 187500.0, 0.034, -0.008, 1.006, 192.0, 0.0, 0.0, 0.0, 0.0, 0.0, 0.0, 0.0, 0.0, 0.0, 1.6946007079024127E9, 0.0, 2023-09-13 12:25:07.902
210.0, 240.12479068336378, 187500.0, 187500.0, 187500.0, 187500.0, 187500.0, 187500.0, 187500.0, 0.034, -0.008, 1.006, 192.0, 0.0, 0.0, 0.0, 0.0, 0.0, 0.0, 0.0, 0.0, 0.0, 1.694600707902445E9, 0.0, 2023-09-13 12:25:07.902
211.0, 265.5387241290479, 187500.0, 187500.0, 187500.0, 187500.0, 187500.0, 187500.0, 187500.0, 0.034, -0.008, 1.006, 192.0, 0.0, 0.0, 0.0, 0.0, 0.0, 0.0, 0.0, 0.0, 0.0, 1.6946007079024892E9, 0.0, 2023-09-13 12:25:07.902
212.0, 126.19794919466368, 187500.0, 187500.0, 187500.0, 187500.0, 187500.0, 187500.0, 187500.0, 0.034, -0.008, 1.006, 192.0, 0.0, 0.0, 0.0, 0.0, 0.0, 0.0, 0.0, 0.0, 0.0, 1.6946007079025342E9, 0.0, 2023-09-13 12:25:07.902
213.0, -402.8678420624545, 187500.0, 187500.0, 187500.0, 187500.0, 187500.0, 187500.0, 187500.0, 0.034, -0.008, 1.006, 192.0, 0.0, 0.0, 0.0, 0.0, 0.0, 0.0, 0.0, 0.0, 0.0, 1.6946007079025855E9, 0.0, 2023-09-13 12:25:07.902
214.0, -523.0084685097299, 187500.0, 187500.0, 187500.0, 187500.0, 187500.0, 187500.0, 187500.0, 0.034, -0.008, 1.006, 192.0, 0.0, 0.0, 0.0, 0.0, 0.0, 0.0, 0.0, 0.0, 0.0, 1.6946007079026332E9, 0.0, 2023-09-13 12:25:07.902
215.0, -492.25246813922746, 187500.0, 187500.0, 187500.0, 187500.0, 187500.0, 187500.0, 187500.0, 0.034, -0.008, 1.006, 192.0, 0.0, 0.0, 0.0, 0.0, 0.0, 0.0, 0.0, 0.0, 0.0, 1.69460070790268E9, 0.0, 2023-09-13 12:25:07.902
216.0, -343.4792570447036, 187500.0, 187500.0, 187500.0, 187500.0, 187500.0, 187500.0, 187500.0, 0.034, -0.008, 1.006, 192.0, 0.0, 0.0, 0.0, 0.0, 0.0, 0.0, 0.0, 0.0, 0.0, 1.6946007079028428E9, 0.0, 2023-09-13 12:25:07.902
217.0, 135.65273709925856, 187500.0, 187500.0, 187500.0, 187500.0, 187500.0, 187500.0, 187500.0, 0.034, -0.008, 1.006, 192.0, 0.0, 0.0, 0.0, 0.0, 0.0, 0.0, 0.0, 0.0, 0.0, 1.694600707902894E9, 0.0, 2023-09-13 12:25:07.902
218.0, 216.7895694720232, 187500.0, 187500.0, 187500.0, 187500.0, 187500.0, 187500.0, 187500.0, 0.03, -0.008, 1.006, 192.0, 0.0, 240.0, 255.0, 192.0, 31.0, 112.0, 0.0, 0.0, 0.0, 1.6946007079029474E9, 0.0, 2023-09-13 12:25:07.902
219.0, 207.2677263340624, 187500.0, 187500.0, 187500.0, 187500.0, 187500.0, 187500.0, 187500.0, 0.03, -0.008, 1.006, 192.0, 0.0, 0.0, 0.0, 0.0, 0.0, 0.0, 0.0, 0.0, 0.0, 1.6946007079032354E9, 0.0, 2023-09-13 12:25:07.903
220.0, 117.27960315699616, 187500.0, 187500.0, 187500.0, 187500.0, 187500.0, 187500.0, 187500.0, 0.03, -0.008, 1.006, 192.0, 0.0, 0.0, 0.0, 0.0, 0.0, 0.0, 0.0, 0.0, 0.0, 1.694600707903294E9, 0.0, 2023-09-13 12:25:07.903
221.0, -351.50353330415885, 187500.0, 187500.0, 187500.0, 187500.0, 187500.0, 187500.0, 187500.0, 0.03, -0.008, 1.006, 192.0, 0.0, 0.0, 0.0, 0.0, 0.0, 0.0, 0.0, 0.0, 0.0, 1.6946007079033468E9, 0.0, 2023-09-13 12:25:07.903
222.0, -478.6402557659454, 187500.0, 187500.0, 187500.0, 187500.0, 187500.0, 187500.0, 187500.0, 0.03, -0.008, 1.006, 192.0, 0.0, 0.0, 0.0, 0.0, 0.0, 0.0, 0.0, 0.0, 0.0, 1.6946007079034047E9, 0.0, 2023-09-13 12:25:07.903
223.0, -518.8510440410429, 187500.0, 187500.0, 187500.0, 187500.0, 187500.0, 187500.0, 187500.0, 0.03, -0.008, 1.006, 192.0, 0.0, 0.0, 0.0, 0.0, 0.0, 0.0, 0.0, 0.0, 0.0, 1.6946007079034617E9, 0.0, 2023-09-13 12:25:07.903
224.0, -399.4256734163372, 187500.0, 187500.0, 187500.0, 187500.0, 187500.0, 187500.0, 187500.0, 0.03, -0.008, 1.006, 192.0, 0.0, 0.0, 0.0, 0.0, 0.0, 0.0, 0.0, 0.0, 0.0, 1.694600707903522E9, 0.0, 2023-09-13 12:25:07.903
225.0, 119.9394607471777, 187500.0, 187500.0, 187500.0, 187500.0, 187500.0, 187500.0, 187500.0, 0.03, -0.008, 1.006, 192.0, 0.0, 0.0, 0.0, 0.0, 0.0, 0.0, 0.0, 0.0, 0.0, 1.6946007083779528E9, 0.0, 2023-09-13 12:25:08.377
226.0, 268.9361892862546, 187500.0, 187500.0, 187500.0, 187500.0, 187500.0, 187500.0, 187500.0, 0.03, -0.008, 1.006, 192.0, 0.0, 0.0, 0.0, 0.0, 0.0, 0.0, 0.0, 0.0, 0.0, 1.6946007083780527E9, 0.0, 2023-09-13 12:25:08.378
227.0, 252.32884315596144, 187500.0, 187500.0, 187500.0, 187500.0, 187500.0, 187500.0, 187500.0, 0.03, -0.008, 1.006, 192.0, 0.0, 0.0, 0.0, 0.0, 0.0, 0.0, 0.0, 0.0, 0.0, 1.6946007083781073E9, 0.0, 2023-09-13 12:25:08.378
228.0, 88.08822489836514, 187500.0, 187500.0, 187500.0, 187500.0, 187500.0, 187500.0, 187500.0, 0.026000000000000002, -0.008, 1.004, 192.0, 0.0, 208.0, 255.0, 192.0, 31.0, 96.0, 0.0, 0.0, 0.0, 1.6946007083781734E9, 0.0, 2023-09-13 12:25:08.378
229.0, -410.5791938995354, 187500.0, 187500.0, 187500.0, 187500.0, 187500.0, 187500.0, 187500.0, 0.026000000000000002, -0.008, 1.004, 192.0, 0.0, 0.0, 0.0, 0.0, 0.0, 0.0, 0.0, 0.0, 0.0, 1.6946007083782315E9, 0.0, 2023-09-13 12:25:08.378
230.0, -493.6606280399118, 187500.0, 187500.0, 187500.0, 187500.0, 187500.0, 187500.0, 187500.0, 0.026000000000000002, -0.008, 1.004, 192.0, 0.0, 0.0, 0.0, 0.0, 0.0, 0.0, 0.0, 0.0, 0.0, 1.694600708378281E9, 0.0, 2023-09-13 12:25:08.378
231.0, -465.67624398186734, 187500.0, 187500.0, 187500.0, 187500.0, 187500.0, 187500.0, 187500.0, 0.026000000000000002, -0.008, 1.004, 192.0, 0.0, 0.0, 0.0, 0.0, 0.0, 0.0, 0.0, 0.0, 0.0, 1.694600708378327E9, 0.0, 2023-09-13 12:25:08.378
232.0, -354.8562949724549, 187500.0, 187500.0, 187500.0, 187500.0, 187500.0, 187500.0, 187500.0, 0.026000000000000002, -0.008, 1.004, 192.0, 0.0, 0.0, 0.0, 0.0, 0.0, 0.0, 0.0, 0.0, 0.0, 1.694600708378372E9, 0.0, 2023-09-13 12:25:08.378
233.0, 97.1630331472198, 187500.0, 187500.0, 187500.0, 187500.0, 187500.0, 187500.0, 187500.0, 0.026000000000000002, -0.008, 1.004, 192.0, 0.0, 0.0, 0.0, 0.0, 0.0, 0.0, 0.0, 0.0, 0.0, 1.694600708378412E9, 0.0, 2023-09-13 12:25:08.378
234.0, 205.7031042221909, 187500.0, 187500.0, 187500.0, 187500.0, 187500.0, 187500.0, 187500.0, 0.026000000000000002, -0.008, 1.004, 192.0, 0.0, 0.0, 0.0, 0.0, 0.0, 0.0, 0.0, 0.0, 0.0, 1.6946007083786666E9, 0.0, 2023-09-13 12:25:08.378
235.0, 242.4270203622604, 187500.0, 187500.0, 187500.0, 187500.0, 187500.0, 187500.0, 187500.0, 0.026000000000000002, -0.008, 1.004, 192.0, 0.0, 0.0, 0.0, 0.0, 0.0, 0.0, 0.0, 0.0, 0.0, 1.6946007083787081E9, 0.0, 2023-09-13 12:25:08.378
236.0, 141.41948716872778, 187500.0, 187500.0, 187500.0, 187500.0, 187500.0, 187500.0, 187500.0, 0.026000000000000002, -0.008, 1.004, 192.0, 0.0, 0.0, 0.0, 0.0, 0.0, 0.0, 0.0, 0.0, 0.0, 1.6946007083787344E9, 0.0, 2023-09-13 12:25:08.378
237.0, -363.7075857767565, 187500.0, 187500.0, 187500.0, 187500.0, 187500.0, 187500.0, 187500.0, 0.026000000000000002, -0.008, 1.004, 192.0, 0.0, 0.0, 0.0, 0.0, 0.0, 0.0, 0.0, 0.0, 0.0, 1.694600708378759E9, 0.0, 2023-09-13 12:25:08.378
238.0, -519.879224285987, 187500.0, 187500.0, 187500.0, 187500.0, 187500.0, 187500.0, 187500.0, 0.026000000000000002, -0.014, 1.0, 192.0, 0.0, 208.0, 255.0, 144.0, 31.0, 64.0, 0.0, 0.0, 0.0, 1.6946007083787835E9, 0.0, 2023-09-13 12:25:08.378
239.0, -523.1872824653724, 187500.0, 187500.0, 187500.0, 187500.0, 187500.0, 187500.0, 187500.0, 0.026000000000000002, -0.014, 1.0, 192.0, 0.0, 0.0, 0.0, 0.0, 0.0, 0.0, 0.0, 0.0, 0.0, 1.6946007083788095E9, 0.0, 2023-09-13 12:25:08.378
240.0, -367.1497544228738, 187500.0, 187500.0, 187500.0, 187500.0, 187500.0, 187500.0, 187500.0, 0.026000000000000002, -0.014, 1.0, 192.0, 0.0, 0.0, 0.0, 0.0, 0.0, 0.0, 0.0, 0.0, 0.0, 1.6946007083788335E9, 0.0, 2023-09-13 12:25:08.378
241.0, 147.38740293829477, 187500.0, 187500.0, 187500.0, 187500.0, 187500.0, 187500.0, 187500.0, 0.026000000000000002, -0.014, 1.0, 192.0, 0.0, 0.0, 0.0, 0.0, 0.0, 0.0, 0.0, 0.0, 0.0, 1.6946007083788576E9, 0.0, 2023-09-13 12:25:08.378
242.0, 256.8215437914782, 187500.0, 187500.0, 187500.0, 187500.0, 187500.0, 187500.0, 187500.0, 0.026000000000000002, -0.014, 1.0, 192.0, 0.0, 0.0, 0.0, 0.0, 0.0, 0.0, 0.0, 0.0, 0.0, 1.6946007083788817E9, 0.0, 2023-09-13 12:25:08.378
243.0, 221.12580789635277, 187500.0, 187500.0, 187500.0, 187500.0, 187500.0, 187500.0, 187500.0, 0.026000000000000002, -0.014, 1.0, 192.0, 0.0, 0.0, 0.0, 0.0, 0.0, 0.0, 0.0, 0.0, 0.0, 1.6946007083789065E9, 0.0, 2023-09-13 12:25:08.378
244.0, 77.98523640456634, 187500.0, 187500.0, 187500.0, 187500.0, 187500.0, 187500.0, 187500.0, 0.026000000000000002, -0.014, 1.0, 192.0, 0.0, 0.0, 0.0, 0.0, 0.0, 0.0, 0.0, 0.0, 0.0, 1.6946007083789303E9, 0.0, 2023-09-13 12:25:08.378
245.0, -373.1176701924408, 187500.0, 187500.0, 187500.0, 187500.0, 187500.0, 187500.0, 187500.0, 0.026000000000000002, -0.014, 1.0, 192.0, 0.0, 0.0, 0.0, 0.0, 0.0, 0.0, 0.0, 0.0, 0.0, 1.6946007083789544E9, 0.0, 2023-09-13 12:25:08.378
246.0, -467.5314387716578, 187500.0, 187500.0, 187500.0, 187500.0, 187500.0, 187500.0, 187500.0, 0.026000000000000002, -0.014, 1.0, 192.0, 0.0, 0.0, 0.0, 0.0, 0.0, 0.0, 0.0, 0.0, 0.0, 1.6946007083789785E9, 0.0, 2023-09-13 12:25:08.378
247.0, -481.16600288939514, 187500.0, 187500.0, 187500.0, 187500.0, 187500.0, 187500.0, 187500.0, 0.026000000000000002, -0.014, 1.0, 192.0, 0.0, 0.0, 0.0, 0.0, 0.0, 0.0, 0.0, 0.0, 0.0, 1.6946007083790026E9, 0.0, 2023-09-13 12:25:08.379
248.0, -394.3294756805272, 187500.0, 187500.0, 187500.0, 187500.0, 187500.0, 187500.0, 187500.0, 0.026000000000000002, -0.014, 1.004, 192.0, 0.0, 208.0, 255.0, 144.0, 31.0, 96.0, 0.0, 0.0, 0.0, 1.6946007083790264E9, 0.0, 2023-09-13 12:25:08.379
249.0, 88.46820455410536, 187500.0, 187500.0, 187500.0, 187500.0, 187500.0, 187500.0, 187500.0, 0.026000000000000002, -0.014, 1.004, 192.0, 0.0, 0.0, 0.0, 0.0, 0.0, 0.0, 0.0, 0.0, 0.0, 1.6946007083790877E9, 0.0, 2023-09-13 12:25:08.379
250.0, 240.8847499948442, 187500.0, 187500.0, 187500.0, 187500.0, 187500.0, 187500.0, 187500.0, 0.026000000000000002, -0.014, 1.004, 192.0, 0.0, 0.0, 0.0, 0.0, 0.0, 0.0, 0.0, 0.0, 0.0, 1.6946007083791137E9, 0.0, 2023-09-13 12:25:08.379
251.0, 264.44348865073783, 187500.0, 187500.0, 187500.0, 187500.0, 187500.0, 187500.0, 187500.0, 0.026000000000000002, -0.014, 1.004, 192.0, 0.0, 0.0, 0.0, 0.0, 0.0, 0.0, 0.0, 0.0, 0.0, 1.6946007083791375E9, 0.0, 2023-09-13 12:25:08.379
252.0, 129.1483794627642, 187500.0, 187500.0, 187500.0, 187500.0, 187500.0, 187500.0, 187500.0, 0.026000000000000002, -0.014, 1.004, 192.0, 0.0, 0.0, 0.0, 0.0, 0.0, 0.0, 0.0, 0.0, 0.0, 1.6946007083791614E9, 0.0, 2023-09-13 12:25:08.379
253.0, -402.04082751760814, 187500.0, 187500.0, 187500.0, 187500.0, 187500.0, 187500.0, 187500.0, 0.026000000000000002, -0.014, 1.004, 192.0, 0.0, 0.0, 0.0, 0.0, 0.0, 0.0, 0.0, 0.0, 0.0, 1.6946007083791854E9, 0.0, 2023-09-13 12:25:08.379
254.0, -520.3709626640037, 187500.0, 187500.0, 187500.0, 187500.0, 187500.0, 187500.0, 187500.0, 0.026000000000000002, -0.014, 1.004, 192.0, 0.0, 0.0, 0.0, 0.0, 0.0, 0.0, 0.0, 0.0, 0.0, 1.6946007083792093E9, 0.0, 2023-09-13 12:25:08.379
255.0, -491.04547393864084, 187500.0, 187500.0, 187500.0, 187500.0, 187500.0, 187500.0, 187500.0, 0.026000000000000002, -0.014, 1.004, 192.0, 0.0, 0.0, 0.0, 0.0, 0.0, 0.0, 0.0, 0.0, 0.0, 1.6946007083792334E9, 0.0, 2023-09-13 12:25:08.379
0.0, -341.1993791102623, 187500.0, 187500.0, 187500.0, 187500.0, 187500.0, 187500.0, 187500.0, 0.026000000000000002, -0.014, 1.004, 192.0, 0.0, 0.0, 0.0, 0.0, 0.0, 0.0, 0.0, 0.0, 0.0, 1.6946007083792577E9, 0.0, 2023-09-13 12:25:08.379
1.0, 132.97052776462172, 187500.0, 187500.0, 187500.0, 187500.0, 187500.0, 187500.0, 187500.0, 0.026000000000000002, -0.014, 1.004, 192.0, 0.0, 0.0, 0.0, 0.0, 0.0, 0.0, 0.0, 0.0, 0.0, 1.6946007083792815E9, 0.0, 2023-09-13 12:25:08.379
2.0, 214.71085723767965, 187500.0, 187500.0, 187500.0, 187500.0, 187500.0, 187500.0, 187500.0, 0.038, -0.012, 1.004, 192.0, 1.0, 48.0, 255.0, 160.0, 31.0, 96.0, 0.0, 0.0, 0.0, 1.6946007083793056E9, 0.0, 2023-09-13 12:25:08.379
3.0, 212.90036593679977, 187500.0, 187500.0, 187500.0, 187500.0, 187500.0, 187500.0, 187500.0, 0.038, -0.012, 1.004, 192.0, 0.0, 0.0, 0.0, 0.0, 0.0, 0.0, 0.0, 0.0, 0.0, 1.694600708379331E9, 0.0, 2023-09-13 12:25:08.379
4.0, 117.3913618792727, 187500.0, 187500.0, 187500.0, 187500.0, 187500.0, 187500.0, 187500.0, 0.038, -0.012, 1.004, 192.0, 0.0, 0.0, 0.0, 0.0, 0.0, 0.0, 0.0, 0.0, 0.0, 1.6946007083793552E9, 0.0, 2023-09-13 12:25:08.379
5.0, -350.5871117814913, 187500.0, 187500.0, 187500.0, 187500.0, 187500.0, 187500.0, 187500.0, 0.038, -0.012, 1.004, 192.0, 0.0, 0.0, 0.0, 0.0, 0.0, 0.0, 0.0, 0.0, 0.0, 1.6946007083793793E9, 0.0, 2023-09-13 12:25:08.379
6.0, -481.50127905622475, 187500.0, 187500.0, 187500.0, 187500.0, 187500.0, 187500.0, 187500.0, 0.038, -0.012, 1.004, 192.0, 0.0, 0.0, 0.0, 0.0, 0.0, 0.0, 0.0, 0.0, 0.0, 1.6946007083794034E9, 0.0, 2023-09-13 12:25:08.379
7.0, -512.2125759378166, 187500.0, 187500.0, 187500.0, 187500.0, 187500.0, 187500.0, 187500.0, 0.038, -0.012, 1.004, 192.0, 0.0, 0.0, 0.0, 0.0, 0.0, 0.0, 0.0, 0.0, 0.0, 1.6946007083794274E9, 0.0, 2023-09-13 12:25:08.379
8.0, -397.90575479337633, 187500.0, 187500.0, 187500.0, 187500.0, 187500.0, 187500.0, 187500.0, 0.038, -0.012, 1.004, 192.0, 0.0, 0.0, 0.0, 0.0, 0.0, 0.0, 0.0, 0.0, 0.0, 1.6946007083794515E9, 0.0, 2023-09-13 12:25:08.379
9.0, 121.68289681469165, 187500.0, 187500.0, 187500.0, 187500.0, 187500.0, 187500.0, 187500.0, 0.038, -0.012, 1.004, 192.0, 0.0, 0.0, 0.0, 0.0, 0.0, 0.0, 0.0, 0.0, 0.0, 1.694600708379501E9, 0.0, 2023-09-13 12:25:08.379
10.0, 268.4891543971484, 187500.0, 187500.0, 187500.0, 187500.0, 187500.0, 187500.0, 187500.0, 0.038, -0.012, 1.004, 192.0, 0.0, 0.0, 0.0, 0.0, 0.0, 0.0, 0.0, 0.0, 0.0, 1.6946007083795257E9, 0.0, 2023-09-13 12:25:08.379
11.0, 250.80892453300055, 187500.0, 187500.0, 187500.0, 187500.0, 187500.0, 187500.0, 187500.0, 0.038, -0.012, 1.004, 192.0, 0.0, 0.0, 0.0, 0.0, 0.0, 0.0, 0.0, 0.0, 0.0, 1.69460070837955E9, 0.0, 2023-09-13 12:25:08.379
12.0, 88.84818420984557, 187500.0, 187500.0, 187500.0, 187500.0, 187500.0, 187500.0, 187500.0, 0.024, -0.01, 1.006, 192.0, 0.0, 192.0, 255.0, 176.0, 31.0, 112.0, 0.0, 0.0, 0.0, 1.6946007083795745E9, 0.0, 2023-09-13 12:25:08.379
13.0, -407.85228107598795, 187500.0, 187500.0, 187500.0, 187500.0, 187500.0, 187500.0, 187500.0, 0.024, -0.01, 1.006, 192.0, 0.0, 0.0, 0.0, 0.0, 0.0, 0.0, 0.0, 0.0, 0.0, 1.6946007083796024E9, 0.0, 2023-09-13 12:25:08.379
14.0, -492.23011639477215, 187500.0, 187500.0, 187500.0, 187500.0, 187500.0, 187500.0, 187500.0, 0.024, -0.01, 1.006, 192.0, 0.0, 0.0, 0.0, 0.0, 0.0, 0.0, 0.0, 0.0, 0.0, 1.6946007083796268E9, 0.0, 2023-09-13 12:25:08.379
15.0, -470.07953763956283, 187500.0, 187500.0, 187500.0, 187500.0, 187500.0, 187500.0, 187500.0, 0.024, -0.01, 1.006, 192.0, 0.0, 0.0, 0.0, 0.0, 0.0, 0.0, 0.0, 0.0, 0.0, 1.6946007083796644E9, 0.0, 2023-09-13 12:25:08.379
16.0, -355.30332986156105, 187500.0, 187500.0, 187500.0, 187500.0, 187500.0, 187500.0, 187500.0, 0.024, -0.01, 1.006, 192.0, 0.0, 0.0, 0.0, 0.0, 0.0, 0.0, 0.0, 0.0, 0.0, 1.694600708379716E9, 0.0, 2023-09-13 12:25:08.379
17.0, 98.97352444809967, 187500.0, 187500.0, 187500.0, 187500.0, 187500.0, 187500.0, 187500.0, 0.024, -0.01, 1.006, 192.0, 0.0, 0.0, 0.0, 0.0, 0.0, 0.0, 0.0, 0.0, 0.0, 1.6946007083797443E9, 0.0, 2023-09-13 12:25:08.379
