%OpenBCI Raw EXG Data
%Number of channels = 8
%Sample Rate = 250 Hz
%Board = OpenBCI_GUI$BoardCytonSerial
Sample Index, EXG Channel 0, EXG Channel 1, EXG Channel 2, EXG Channel 3, EXG Channel 4, EXG Channel 5, EXG Channel 6, EXG Channel 7, Accel Channel 0, Accel Channel 1, Accel Channel 2, Other, Other, Other, Other, Other, Other, Other, Analog Channel 0, Analog Channel 1, Analog Channel 2, Timestamp, Other, Timestamp (Formatted)
0.0, 0.0, 0.0, 0.0, 0.0, 0.0, 0.0, 0.0, 0.0, 0.026000000000000002, 0.06, 0.996, 192.0, 0.0, 208.0, 1.0, 224.0, 31.0, 32.0, 0.0, 0.0, 0.0, 1.6953717934263003E9, 0.0, 2023-09-22 10:36:33.426
1.0, -1960.1585817526081, 187500.0, -187500.02235174447, -187500.02235174447, 187500.0, -187500.02235174447, -187500.02235174447, -187500.02235174447, 0.026000000000000002, 0.06, 0.996, 192.0, 0.0, 0.0, 0.0, 0.0, 0.0, 0.0, 0.0, 0.0, 0.0, 1.6953717939115531E9, 0.0, 2023-09-22 10:36:33.911
2.0, 1311.6227163818737, 187500.0, -187500.02235174447, -187500.02235174447, 187500.0, -187500.02235174447, -187500.02235174447, -187500.02235174447, 0.026000000000000002, 0.06, 0.996, 192.0, 0.0, 0.0, 0.0, 0.0, 0.0, 0.0, 0.0, 0.0, 0.0, 1.695371793911647E9, 0.0, 2023-09-22 10:36:33.911
3.0, 4033.7969701048105, 187500.0, -187500.02235174447, -187500.02235174447, 187500.0, -187500.02235174447, -187500.02235174447, -187500.02235174447, 0.026000000000000002, 0.06, 0.996, 192.0, 0.0, 0.0, 0.0, 0.0, 0.0, 0.0, 0.0, 0.0, 0.0, 1.6953717939117348E9, 0.0, 2023-09-22 10:36:33.911
4.0, 6000.23639204936, 187500.0, -187500.02235174447, -187500.02235174447, 187500.0, -187500.02235174447, -187500.02235174447, -187500.02235174447, 0.026000000000000002, 0.06, 0.996, 192.0, 0.0, 0.0, 0.0, 0.0, 0.0, 0.0, 0.0, 0.0, 0.0, 1.6953717939117799E9, 0.0, 2023-09-22 10:36:33.911
5.0, 4994.229077604899, 187500.0, -187500.02235174447, -187500.02235174447, 187500.0, -187500.02235174447, -187500.02235174447, -187500.02235174447, 0.026000000000000002, 0.06, 0.996, 192.0, 0.0, 0.0, 0.0, 0.0, 0.0, 0.0, 0.0, 0.0, 0.0, 1.6953717939118235E9, 0.0, 2023-09-22 10:36:33.911
6.0, 2152.4282875571594, 187500.0, -187500.02235174447, -187500.02235174447, 187500.0, -187500.02235174447, -187500.02235174447, -187500.02235174447, 0.026000000000000002, 0.06, 0.996, 192.0, 0.0, 0.0, 0.0, 0.0, 0.0, 0.0, 0.0, 0.0, 0.0, 1.6953717939118676E9, 0.0, 2023-09-22 10:36:33.911
7.0, -240.1471424278191, 187500.0, -187500.02235174447, -187500.02235174447, 187500.0, -187500.02235174447, -187500.02235174447, -187500.02235174447, 0.026000000000000002, 0.06, 0.996, 192.0, 0.0, 0.0, 0.0, 0.0, 0.0, 0.0, 0.0, 0.0, 0.0, 1.695371793911908E9, 0.0, 2023-09-22 10:36:33.911
8.0, -1998.4694717490045, 187500.0, -187500.02235174447, -187500.02235174447, 187500.0, -187500.02235174447, -187500.02235174447, -187500.02235174447, 0.028, 0.05, 0.994, 192.0, 0.0, 224.0, 1.0, 144.0, 31.0, 16.0, 0.0, 0.0, 0.0, 1.6953717939119484E9, 0.0, 2023-09-22 10:36:33.911
9.0, -823.862948878163, 187500.0, -187500.02235174447, -187500.02235174447, 187500.0, -187500.02235174447, -187500.02235174447, -187500.02235174447, 0.028, 0.05, 0.994, 192.0, 0.0, 0.0, 0.0, 0.0, 0.0, 0.0, 0.0, 0.0, 0.0, 1.6953717939119904E9, 0.0, 2023-09-22 10:36:33.911
10.0, 2283.1859926207057, 187500.0, -187500.02235174447, -187500.02235174447, 187500.0, -187500.02235174447, -187500.02235174447, -187500.02235174447, 0.028, 0.05, 0.994, 192.0, 0.0, 0.0, 0.0, 0.0, 0.0, 0.0, 0.0, 0.0, 0.0, 1.6953717939120312E9, 0.0, 2023-09-22 10:36:33.912
11.0, 4910.477091130864, 187500.0, -187500.02235174447, -187500.02235174447, 187500.0, -187500.02235174447, -187500.02235174447, -187500.02235174447, 0.028, 0.05, 0.994, 192.0, 0.0, 0.0, 0.0, 0.0, 0.0, 0.0, 0.0, 0.0, 0.0, 1.6953717939120724E9, 0.0, 2023-09-22 10:36:33.912
12.0, 6904.744434922271, 187500.0, -187500.02235174447, -187500.02235174447, 187500.0, -187500.02235174447, -187500.02235174447, -187500.02235174447, 0.028, 0.05, 0.994, 192.0, 0.0, 0.0, 0.0, 0.0, 0.0, 0.0, 0.0, 0.0, 0.0, 1.6953717939121184E9, 0.0, 2023-09-22 10:36:33.912
13.0, 5822.115340485017, 187500.0, -187500.02235174447, -187500.02235174447, 187500.0, -187500.02235174447, -187500.02235174447, -187500.02235174447, 0.028, 0.05, 0.994, 192.0, 0.0, 0.0, 0.0, 0.0, 0.0, 0.0, 0.0, 0.0, 0.0, 1.6953717939121597E9, 0.0, 2023-09-22 10:36:33.912
14.0, 2852.350813430645, 187500.0, -187500.02235174447, -187500.02235174447, 187500.0, -187500.02235174447, -187500.02235174447, -187500.02235174447, 0.028, 0.05, 0.994, 192.0, 0.0, 0.0, 0.0, 0.0, 0.0, 0.0, 0.0, 0.0, 0.0, 1.6953717939121857E9, 0.0, 2023-09-22 10:36:33.912
15.0, 366.30038813357214, 187500.0, -187500.02235174447, -187500.02235174447, 187500.0, -187500.02235174447, -187500.02235174447, -187500.02235174447, 0.028, 0.05, 0.994, 192.0, 0.0, 0.0, 0.0, 0.0, 0.0, 0.0, 0.0, 0.0, 0.0, 1.6953717939122093E9, 0.0, 2023-09-22 10:36:33.912
16.0, -1418.0840752225013, 187500.0, -187500.02235174447, -187500.02235174447, 187500.0, -187500.02235174447, -187500.02235174447, -187500.02235174447, 0.028, 0.05, 0.994, 192.0, 0.0, 0.0, 0.0, 0.0, 0.0, 0.0, 0.0, 0.0, 0.0, 1.6953717939124615E9, 0.0, 2023-09-22 10:36:33.912
17.0, -258.2073519477072, 187500.0, -187500.02235174447, -187500.02235174447, 187500.0, -187500.02235174447, -187500.02235174447, -187500.02235174447, 0.03, 0.046, 0.996, 192.0, 0.0, 240.0, 1.0, 112.0, 31.0, 32.0, 0.0, 0.0, 0.0, 1.6953717939124892E9, 0.0, 2023-09-22 10:36:33.912
18.0, 2784.7591381977963, 187500.0, -187500.02235174447, -187500.02235174447, 187500.0, -187500.02235174447, -187500.02235174447, -187500.02235174447, 0.03, 0.046, 0.996, 192.0, 0.0, 0.0, 0.0, 0.0, 0.0, 0.0, 0.0, 0.0, 0.0, 1.695371793912532E9, 0.0, 2023-09-22 10:36:33.912
19.0, 5361.200018072131, 187500.0, -187500.02235174447, -187500.02235174447, 187500.0, -187500.02235174447, -187500.02235174447, -187500.02235174447, 0.03, 0.046, 0.996, 192.0, 0.0, 0.0, 0.0, 0.0, 0.0, 0.0, 0.0, 0.0, 0.0, 1.695371793912562E9, 0.0, 2023-09-22 10:36:33.912
20.0, 7265.099259030731, 187500.0, -187500.02235174447, -187500.02235174447, 187500.0, -187500.02235174447, -187500.02235174447, -187500.02235174447, 0.03, 0.046, 0.996, 192.0, 0.0, 0.0, 0.0, 0.0, 0.0, 0.0, 0.0, 0.0, 0.0, 1.6953717939125931E9, 0.0, 2023-09-22 10:36:33.912
21.0, 6221.451606923533, 187500.0, -187500.02235174447, -187500.02235174447, 187500.0, -187500.02235174447, -187500.02235174447, -187500.02235174447, 0.03, 0.046, 0.996, 192.0, 0.0, 0.0, 0.0, 0.0, 0.0, 0.0, 0.0, 0.0, 0.0, 1.6953717939126234E9, 0.0, 2023-09-22 10:36:33.912
22.0, 3266.238065509566, 187500.0, -187500.02235174447, -187500.02235174447, 187500.0, -187500.02235174447, -187500.02235174447, -187500.02235174447, 0.03, 0.046, 0.996, 192.0, 0.0, 0.0, 0.0, 0.0, 0.0, 0.0, 0.0, 0.0, 0.0, 1.695371793912656E9, 0.0, 2023-09-22 10:36:33.912
23.0, 771.2692941748255, 187500.0, -187500.02235174447, -187500.02235174447, 187500.0, -187500.02235174447, -187500.02235174447, -187500.02235174447, 0.03, 0.046, 0.996, 192.0, 0.0, 0.0, 0.0, 0.0, 0.0, 0.0, 0.0, 0.0, 0.0, 1.6953717939127119E9, 0.0, 2023-09-22 10:36:33.912
24.0, -1076.2588472674904, 187500.0, -187500.02235174447, -187500.02235174447, 187500.0, -187500.02235174447, -187500.02235174447, -187500.02235174447, 0.03, 0.046, 0.996, 192.0, 0.0, 0.0, 0.0, 0.0, 0.0, 0.0, 0.0, 0.0, 0.0, 1.6953717939127529E9, 0.0, 2023-09-22 10:36:33.912
25.0, 39.98727083054433, 187500.0, -187500.02235174447, -187500.02235174447, 187500.0, -187500.02235174447, -187500.02235174447, -187500.02235174447, 0.03, 0.046, 0.996, 192.0, 0.0, 0.0, 0.0, 0.0, 0.0, 0.0, 0.0, 0.0, 0.0, 1.6953717939127953E9, 0.0, 2023-09-22 10:36:33.912
26.0, 3107.6971420880727, 187500.0, -187500.02235174447, -187500.02235174447, 187500.0, -187500.02235174447, -187500.02235174447, -187500.02235174447, 0.03, 0.046, 0.996, 192.0, 0.0, 0.0, 0.0, 0.0, 0.0, 0.0, 0.0, 0.0, 0.0, 1.695371793912839E9, 0.0, 2023-09-22 10:36:33.912
27.0, 5686.708472574767, 187500.0, -187500.02235174447, -187500.02235174447, 187500.0, -187500.02235174447, -187500.02235174447, -187500.02235174447, 0.028, 0.046, 0.996, 192.0, 0.0, 224.0, 1.0, 112.0, 31.0, 32.0, 0.0, 0.0, 0.0, 1.6953717939128797E9, 0.0, 2023-09-22 10:36:33.912
28.0, 7572.055765635463, 187500.0, -187500.02235174447, -187500.02235174447, 187500.0, -187500.02235174447, -187500.02235174447, -187500.02235174447, 0.028, 0.046, 0.996, 192.0, 0.0, 0.0, 0.0, 0.0, 0.0, 0.0, 0.0, 0.0, 0.0, 1.695371793912923E9, 0.0, 2023-09-22 10:36:33.912
29.0, 6468.125458732303, 187500.0, -187500.02235174447, -187500.02235174447, 187500.0, -187500.02235174447, -187500.02235174447, -187500.02235174447, 0.028, 0.046, 0.996, 192.0, 0.0, 0.0, 0.0, 0.0, 0.0, 0.0, 0.0, 0.0, 0.0, 1.6953717939129689E9, 0.0, 2023-09-22 10:36:33.912
30.0, 3455.5573410460165, 187500.0, -187500.02235174447, -187500.02235174447, 187500.0, -187500.02235174447, -187500.02235174447, -187500.02235174447, 0.028, 0.046, 0.996, 192.0, 0.0, 0.0, 0.0, 0.0, 0.0, 0.0, 0.0, 0.0, 0.0, 1.6953717939130082E9, 0.0, 2023-09-22 10:36:33.913
31.0, 993.5126892939436, 187500.0, -187500.02235174447, -187500.02235174447, 187500.0, -187500.02235174447, -187500.02235174447, -187500.02235174447, 0.028, 0.046, 0.996, 192.0, 0.0, 0.0, 0.0, 0.0, 0.0, 0.0, 0.0, 0.0, 0.0, 1.6953717939131577E9, 0.0, 2023-09-22 10:36:33.913
32.0, -815.3245824962357, 187500.0, -187500.02235174447, -187500.02235174447, 187500.0, -187500.02235174447, -187500.02235174447, -187500.02235174447, 0.028, 0.046, 0.996, 192.0, 0.0, 0.0, 0.0, 0.0, 0.0, 0.0, 0.0, 0.0, 0.0, 1.6953717939131987E9, 0.0, 2023-09-22 10:36:33.913
33.0, 326.06724811401943, 187500.0, -187500.02235174447, -187500.02235174447, 187500.0, -187500.02235174447, -187500.02235174447, -187500.02235174447, 0.028, 0.046, 0.996, 192.0, 0.0, 0.0, 0.0, 0.0, 0.0, 0.0, 0.0, 0.0, 0.0, 1.6953717939132397E9, 0.0, 2023-09-22 10:36:33.913
34.0, 3350.4147351282522, 187500.0, -187500.02235174447, -187500.02235174447, 187500.0, -187500.02235174447, -187500.02235174447, -187500.02235174447, 0.028, 0.046, 0.996, 192.0, 0.0, 0.0, 0.0, 0.0, 0.0, 0.0, 0.0, 0.0, 0.0, 1.6953717939132807E9, 0.0, 2023-09-22 10:36:33.913
35.0, 5836.912195314431, 187500.0, -187500.02235174447, -187500.02235174447, 187500.0, -187500.02235174447, -187500.02235174447, -187500.02235174447, 0.028, 0.046, 0.996, 192.0, 0.0, 0.0, 0.0, 0.0, 0.0, 0.0, 0.0, 0.0, 0.0, 1.695371793913321E9, 0.0, 2023-09-22 10:36:33.913
36.0, 7729.8143780010205, 187500.0, -187500.02235174447, -187500.02235174447, 187500.0, -187500.02235174447, -187500.02235174447, -187500.02235174447, 0.028, 0.046, 0.996, 192.0, 0.0, 0.0, 0.0, 0.0, 0.0, 0.0, 0.0, 0.0, 0.0, 1.6953717939133613E9, 0.0, 2023-09-22 10:36:33.913
37.0, 6661.646862226351, 187500.0, -187500.02235174447, -187500.02235174447, 187500.0, -187500.02235174447, -187500.02235174447, -187500.02235174447, 0.028, 0.054, 0.996, 192.0, 0.0, 224.0, 1.0, 176.0, 31.0, 32.0, 0.0, 0.0, 0.0, 1.6953717939134033E9, 0.0, 2023-09-22 10:36:33.913
38.0, 3666.2672360261963, 187500.0, -187500.02235174447, -187500.02235174447, 187500.0, -187500.02235174447, -187500.02235174447, -187500.02235174447, 0.028, 0.054, 0.996, 192.0, 0.0, 0.0, 0.0, 0.0, 0.0, 0.0, 0.0, 0.0, 0.0, 1.6953717939134388E9, 0.0, 2023-09-22 10:36:33.913
39.0, 1162.0001389980482, 187500.0, -187500.02235174447, -187500.02235174447, 187500.0, -187500.02235174447, -187500.02235174447, -187500.02235174447, 0.028, 0.054, 0.996, 192.0, 0.0, 0.0, 0.0, 0.0, 0.0, 0.0, 0.0, 0.0, 0.0, 1.695371793913463E9, 0.0, 2023-09-22 10:36:33.913
40.0, -679.2471622523263, 187500.0, -187500.02235174447, -187500.02235174447, 187500.0, -187500.02235174447, -187500.02235174447, -187500.02235174447, 0.028, 0.054, 0.996, 192.0, 0.0, 0.0, 0.0, 0.0, 0.0, 0.0, 0.0, 0.0, 0.0, 1.6953717939134867E9, 0.0, 2023-09-22 10:36:33.913
41.0, 454.5674269875797, 187500.0, -187500.02235174447, -187500.02235174447, 187500.0, -187500.02235174447, -187500.02235174447, -187500.02235174447, 0.028, 0.054, 0.996, 192.0, 0.0, 0.0, 0.0, 0.0, 0.0, 0.0, 0.0, 0.0, 0.0, 1.6953717939135103E9, 0.0, 2023-09-22 10:36:33.913
42.0, 3516.3317342199966, 187500.0, -187500.02235174447, -187500.02235174447, 187500.0, -187500.02235174447, -187500.02235174447, -187500.02235174447, 0.028, 0.054, 0.996, 192.0, 0.0, 0.0, 0.0, 0.0, 0.0, 0.0, 0.0, 0.0, 0.0, 1.6953717939135337E9, 0.0, 2023-09-22 10:36:33.913
43.0, 6030.455950552935, 187500.0, -187500.02235174447, -187500.02235174447, 187500.0, -187500.02235174447, -187500.02235174447, -187500.02235174447, 0.028, 0.054, 0.996, 192.0, 0.0, 0.0, 0.0, 0.0, 0.0, 0.0, 0.0, 0.0, 0.0, 1.6953717939135573E9, 0.0, 2023-09-22 10:36:33.913
44.0, 7880.979225752262, 187500.0, -187500.02235174447, -187500.02235174447, 187500.0, -187500.02235174447, -187500.02235174447, -187500.02235174447, 0.028, 0.054, 0.996, 192.0, 0.0, 0.0, 0.0, 0.0, 0.0, 0.0, 0.0, 0.0, 0.0, 1.6953717939135847E9, 0.0, 2023-09-22 10:36:33.913
45.0, 6753.199607515288, 187500.0, -187500.02235174447, -187500.02235174447, 187500.0, -187500.02235174447, -187500.02235174447, -187500.02235174447, 0.028, 0.054, 0.996, 192.0, 0.0, 0.0, 0.0, 0.0, 0.0, 0.0, 0.0, 0.0, 0.0, 1.6953717939136088E9, 0.0, 2023-09-22 10:36:33.913
46.0, 3771.655711132969, 187500.0, -187500.02235174447, -187500.02235174447, 187500.0, -187500.02235174447, -187500.02235174447, -187500.02235174447, 0.028, 0.054, 0.996, 192.0, 0.0, 0.0, 0.0, 0.0, 0.0, 0.0, 0.0, 0.0, 0.0, 1.695371793913668E9, 0.0, 2023-09-22 10:36:33.913
47.0, 1313.455559427209, 187500.0, -187500.02235174447, -187500.02235174447, 187500.0, -187500.02235174447, -187500.02235174447, -187500.02235174447, 0.024, 0.048, 1.0, 192.0, 0.0, 192.0, 1.0, 128.0, 31.0, 64.0, 0.0, 0.0, 0.0, 1.6953717939136927E9, 0.0, 2023-09-22 10:36:33.913
48.0, -520.974459764297, 187500.0, -187500.02235174447, -187500.02235174447, 187500.0, -187500.02235174447, -187500.02235174447, -187500.02235174447, 0.024, 0.048, 1.0, 192.0, 0.0, 0.0, 0.0, 0.0, 0.0, 0.0, 0.0, 0.0, 0.0, 1.6953717939137175E9, 0.0, 2023-09-22 10:36:33.913
49.0, 549.428230455903, 187500.0, -187500.02235174447, -187500.02235174447, 187500.0, -187500.02235174447, -187500.02235174447, -187500.02235174447, 0.024, 0.048, 1.0, 192.0, 0.0, 0.0, 0.0, 0.0, 0.0, 0.0, 0.0, 0.0, 0.0, 1.695371793913741E9, 0.0, 2023-09-22 10:36:33.913
50.0, 3574.558028526071, 187500.0, -187500.02235174447, -187500.02235174447, 187500.0, -187500.02235174447, -187500.02235174447, -187500.02235174447, 0.024, 0.048, 1.0, 192.0, 0.0, 0.0, 0.0, 0.0, 0.0, 0.0, 0.0, 0.0, 0.0, 1.6953717939137645E9, 0.0, 2023-09-22 10:36:33.913
51.0, 6172.098955166216, 187500.0, -187500.02235174447, -187500.02235174447, 187500.0, -187500.02235174447, -187500.02235174447, -187500.02235174447, 0.024, 0.048, 1.0, 192.0, 0.0, 0.0, 0.0, 0.0, 0.0, 0.0, 0.0, 0.0, 0.0, 1.6953717939137886E9, 0.0, 2023-09-22 10:36:33.913
52.0, 8052.461809213378, 187500.0, -187500.02235174447, -187500.02235174447, 187500.0, -187500.02235174447, -187500.02235174447, -187500.02235174447, 0.024, 0.048, 1.0, 192.0, 0.0, 0.0, 0.0, 0.0, 0.0, 0.0, 0.0, 0.0, 0.0, 1.6953717939138122E9, 0.0, 2023-09-22 10:36:33.913
53.0, 6936.573319026628, 187500.0, -187500.02235174447, -187500.02235174447, 187500.0, -187500.02235174447, -187500.02235174447, -187500.02235174447, 0.024, 0.048, 1.0, 192.0, 0.0, 0.0, 0.0, 0.0, 0.0, 0.0, 0.0, 0.0, 0.0, 1.6953717939138355E9, 0.0, 2023-09-22 10:36:33.913
54.0, 3885.9625322774095, 187500.0, -187500.02235174447, -187500.02235174447, 187500.0, -187500.02235174447, -187500.02235174447, -187500.02235174447, 0.024, 0.048, 1.0, 192.0, 0.0, 0.0, 0.0, 0.0, 0.0, 0.0, 0.0, 0.0, 0.0, 1.6953717939138591E9, 0.0, 2023-09-22 10:36:33.913
55.0, 1361.8917896618593, 187500.0, -187500.02235174447, -187500.02235174447, 187500.0, -187500.02235174447, -187500.02235174447, -187500.02235174447, 0.024, 0.048, 1.0, 192.0, 0.0, 0.0, 0.0, 0.0, 0.0, 0.0, 0.0, 0.0, 0.0, 1.6953717939138825E9, 0.0, 2023-09-22 10:36:33.913
56.0, -477.8579447100097, 187500.0, -187500.02235174447, -187500.02235174447, 187500.0, -187500.02235174447, -187500.02235174447, -187500.02235174447, 0.024, 0.048, 1.0, 192.0, 0.0, 0.0, 0.0, 0.0, 0.0, 0.0, 0.0, 0.0, 0.0, 1.695371793913906E9, 0.0, 2023-09-22 10:36:33.913
57.0, 680.9235430864744, 187500.0, -187500.02235174447, -187500.02235174447, 187500.0, -187500.02235174447, -187500.02235174447, -187500.02235174447, 0.022, 0.05, 1.0, 192.0, 0.0, 176.0, 1.0, 144.0, 31.0, 64.0, 0.0, 0.0, 0.0, 1.6953717939139297E9, 0.0, 2023-09-22 10:36:33.913
58.0, 3706.142748134464, 187500.0, -187500.02235174447, -187500.02235174447, 187500.0, -187500.02235174447, -187500.02235174447, -187500.02235174447, 0.022, 0.05, 1.0, 192.0, 0.0, 0.0, 0.0, 0.0, 0.0, 0.0, 0.0, 0.0, 0.0, 1.6953717939139545E9, 0.0, 2023-09-22 10:36:33.913
59.0, 6207.124138727682, 187500.0, -187500.02235174447, -187500.02235174447, 187500.0, -187500.02235174447, -187500.02235174447, -187500.02235174447, 0.022, 0.05, 1.0, 192.0, 0.0, 0.0, 0.0, 0.0, 0.0, 0.0, 0.0, 0.0, 0.0, 1.695371793913978E9, 0.0, 2023-09-22 10:36:33.913
60.0, 8078.054556614704, 187500.0, -187500.02235174447, -187500.02235174447, 187500.0, -187500.02235174447, -187500.02235174447, -187500.02235174447, 0.022, 0.05, 1.0, 192.0, 0.0, 0.0, 0.0, 0.0, 0.0, 0.0, 0.0, 0.0, 0.0, 1.6953717939140017E9, 0.0, 2023-09-22 10:36:33.914
61.0, 7031.657639939504, 187500.0, -187500.02235174447, -187500.02235174447, 187500.0, -187500.02235174447, -187500.02235174447, -187500.02235174447, 0.022, 0.05, 1.0, 192.0, 0.0, 0.0, 0.0, 0.0, 0.0, 0.0, 0.0, 0.0, 0.0, 1.6953717939140987E9, 0.0, 2023-09-22 10:36:33.914
62.0, 4006.8184145472546, 187500.0, -187500.02235174447, -187500.02235174447, 187500.0, -187500.02235174447, -187500.02235174447, -187500.02235174447, 0.022, 0.05, 1.0, 192.0, 0.0, 0.0, 0.0, 0.0, 0.0, 0.0, 0.0, 0.0, 0.0, 1.6953717939141233E9, 0.0, 2023-09-22 10:36:33.914
63.0, 1484.669921954861, 187500.0, -187500.02235174447, -187500.02235174447, 187500.0, -187500.02235174447, -187500.02235174447, -187500.02235174447, 0.022, 0.05, 1.0, 192.0, 0.0, 0.0, 0.0, 0.0, 0.0, 0.0, 0.0, 0.0, 0.0, 1.695371793914147E9, 0.0, 2023-09-22 10:36:33.914
64.0, -385.4781848762256, 187500.0, -187500.02235174447, -187500.02235174447, 187500.0, -187500.02235174447, -187500.02235174447, -187500.02235174447, 0.022, 0.05, 1.0, 192.0, 0.0, 0.0, 0.0, 0.0, 0.0, 0.0, 0.0, 0.0, 0.0, 1.6953717939141705E9, 0.0, 2023-09-22 10:36:33.914
65.0, 707.1644910770049, 187500.0, -187500.02235174447, -187500.02235174447, 187500.0, -187500.02235174447, -187500.02235174447, -187500.02235174447, 0.022, 0.05, 1.0, 192.0, 0.0, 0.0, 0.0, 0.0, 0.0, 0.0, 0.0, 0.0, 0.0, 1.6953717939141984E9, 0.0, 2023-09-22 10:36:33.914
66.0, 3750.689774833891, 187500.0, -187500.02235174447, -187500.02235174447, 187500.0, -187500.02235174447, -187500.02235174447, -187500.02235174447, 0.022, 0.05, 1.0, 192.0, 0.0, 0.0, 0.0, 0.0, 0.0, 0.0, 0.0, 0.0, 0.0, 1.695371793914226E9, 0.0, 2023-09-22 10:36:33.914
67.0, 6317.139424936703, 187500.0, -187500.02235174447, -187500.02235174447, 187500.0, -187500.02235174447, -187500.02235174447, -187500.02235174447, 0.028, 0.052000000000000005, 1.0, 192.0, 0.0, 224.0, 1.0, 160.0, 31.0, 64.0, 0.0, 0.0, 0.0, 1.6953717939142625E9, 0.0, 2023-09-22 10:36:33.914
68.0, 8187.4886974678875, 187500.0, -187500.02235174447, -187500.02235174447, 187500.0, -187500.02235174447, -187500.02235174447, -187500.02235174447, 0.028, 0.052000000000000005, 1.0, 192.0, 0.0, 0.0, 0.0, 0.0, 0.0, 0.0, 0.0, 0.0, 0.0, 1.6953717939143035E9, 0.0, 2023-09-22 10:36:33.914
69.0, 7067.129858390076, 187500.0, -187500.02235174447, -187500.02235174447, 187500.0, -187500.02235174447, -187500.02235174447, -187500.02235174447, 0.028, 0.052000000000000005, 1.0, 192.0, 0.0, 0.0, 0.0, 0.0, 0.0, 0.0, 0.0, 0.0, 0.0, 1.6953717939143727E9, 0.0, 2023-09-22 10:36:33.914
70.0, 4055.7016796710113, 187500.0, -187500.02235174447, -187500.02235174447, 187500.0, -187500.02235174447, -187500.02235174447, -187500.02235174447, 0.028, 0.052000000000000005, 1.0, 192.0, 0.0, 0.0, 0.0, 0.0, 0.0, 0.0, 0.0, 0.0, 0.0, 1.6953717939144127E9, 0.0, 2023-09-22 10:36:33.914
71.0, 1551.8816175319694, 187500.0, -187500.02235174447, -187500.02235174447, 187500.0, -187500.02235174447, -187500.02235174447, -187500.02235174447, 0.028, 0.052000000000000005, 1.0, 192.0, 0.0, 0.0, 0.0, 0.0, 0.0, 0.0, 0.0, 0.0, 0.0, 1.6953717939144375E9, 0.0, 2023-09-22 10:36:33.914
72.0, -267.1033462409194, 187500.0, -187500.02235174447, -187500.02235174447, 187500.0, -187500.02235174447, -187500.02235174447, -187500.02235174447, 0.028, 0.052000000000000005, 1.0, 192.0, 0.0, 0.0, 0.0, 0.0, 0.0, 0.0, 0.0, 0.0, 0.0, 1.6953717939144616E9, 0.0, 2023-09-22 10:36:33.914
73.0, 821.0689808212496, 187500.0, -187500.02235174447, -187500.02235174447, 187500.0, -187500.02235174447, -187500.02235174447, -187500.02235174447, 0.028, 0.052000000000000005, 1.0, 192.0, 0.0, 0.0, 0.0, 0.0, 0.0, 0.0, 0.0, 0.0, 0.0, 1.6953717939144847E9, 0.0, 2023-09-22 10:36:33.914
74.0, 3819.42138903396, 187500.0, -187500.02235174447, -187500.02235174447, 187500.0, -187500.02235174447, -187500.02235174447, -187500.02235174447, 0.028, 0.052000000000000005, 1.0, 192.0, 0.0, 0.0, 0.0, 0.0, 0.0, 0.0, 0.0, 0.0, 0.0, 1.695371793914508E9, 0.0, 2023-09-22 10:36:33.914
75.0, 6336.2501664459905, 187500.0, -187500.02235174447, -187500.02235174447, 187500.0, -187500.02235174447, -187500.02235174447, -187500.02235174447, 0.028, 0.052000000000000005, 1.0, 192.0, 0.0, 0.0, 0.0, 0.0, 0.0, 0.0, 0.0, 0.0, 0.0, 1.6953717939145312E9, 0.0, 2023-09-22 10:36:33.914
76.0, 8216.523613515332, 187500.0, -187500.02235174447, -187500.02235174447, 187500.0, -187500.02235174447, -187500.02235174447, -187500.02235174447, 0.028, 0.052000000000000005, 1.0, 192.0, 0.0, 0.0, 0.0, 0.0, 0.0, 0.0, 0.0, 0.0, 0.0, 1.6953717939146383E9, 0.0, 2023-09-22 10:36:33.914
77.0, 7122.070446261221, 187500.0, -187500.02235174447, -187500.02235174447, 187500.0, -187500.02235174447, -187500.02235174447, -187500.02235174447, 0.032, 0.052000000000000005, 1.002, 192.0, 1.0, 0.0, 1.0, 160.0, 31.0, 80.0, 0.0, 0.0, 0.0, 1.695371793914663E9, 0.0, 2023-09-22 10:36:33.914
78.0, 4117.7948257678545, 187500.0, -187500.02235174447, -187500.02235174447, 187500.0, -187500.02235174447, -187500.02235174447, -187500.02235174447, 0.032, 0.052000000000000005, 1.002, 192.0, 0.0, 0.0, 0.0, 0.0, 0.0, 0.0, 0.0, 0.0, 0.0, 1.695371793914688E9, 0.0, 2023-09-22 10:36:33.914
79.0, 1590.2595627617316, 187500.0, -187500.02235174447, -187500.02235174447, 187500.0, -187500.02235174447, -187500.02235174447, -187500.02235174447, 0.032, 0.052000000000000005, 1.002, 192.0, 0.0, 0.0, 0.0, 0.0, 0.0, 0.0, 0.0, 0.0, 0.0, 1.6953717939147117E9, 0.0, 2023-09-22 10:36:33.914
80.0, -278.502735913126, 187500.0, -187500.02235174447, -187500.02235174447, 187500.0, -187500.02235174447, -187500.02235174447, -187500.02235174447, 0.032, 0.052000000000000005, 1.002, 192.0, 0.0, 0.0, 0.0, 0.0, 0.0, 0.0, 0.0, 0.0, 0.0, 1.6953717939147353E9, 0.0, 2023-09-22 10:36:33.914
81.0, 854.5965975042102, 187500.0, -187500.02235174447, -187500.02235174447, 187500.0, -187500.02235174447, -187500.02235174447, -187500.02235174447, 0.032, 0.052000000000000005, 1.002, 192.0, 0.0, 0.0, 0.0, 0.0, 0.0, 0.0, 0.0, 0.0, 0.0, 1.6953717939147584E9, 0.0, 2023-09-22 10:36:33.914
82.0, 3866.2482936678284, 187500.0, -187500.02235174447, -187500.02235174447, 187500.0, -187500.02235174447, -187500.02235174447, -187500.02235174447, 0.032, 0.052000000000000005, 1.002, 192.0, 0.0, 0.0, 0.0, 0.0, 0.0, 0.0, 0.0, 0.0, 0.0, 1.695371793914782E9, 0.0, 2023-09-22 10:36:33.914
83.0, 6395.54934448592, 187500.0, -187500.02235174447, -187500.02235174447, 187500.0, -187500.02235174447, -187500.02235174447, -187500.02235174447, 0.032, 0.052000000000000005, 1.002, 192.0, 0.0, 0.0, 0.0, 0.0, 0.0, 0.0, 0.0, 0.0, 0.0, 1.6953717939148052E9, 0.0, 2023-09-22 10:36:33.914
84.0, 8224.30202058578, 187500.0, -187500.02235174447, -187500.02235174447, 187500.0, -187500.02235174447, -187500.02235174447, -187500.02235174447, 0.032, 0.052000000000000005, 1.002, 192.0, 0.0, 0.0, 0.0, 0.0, 0.0, 0.0, 0.0, 0.0, 0.0, 1.6953717939148293E9, 0.0, 2023-09-22 10:36:33.914
85.0, 7090.30861739023, 187500.0, -187500.02235174447, -187500.02235174447, 187500.0, -187500.02235174447, -187500.02235174447, -187500.02235174447, 0.032, 0.052000000000000005, 1.002, 192.0, 0.0, 0.0, 0.0, 0.0, 0.0, 0.0, 0.0, 0.0, 0.0, 1.6953717939148524E9, 0.0, 2023-09-22 10:36:33.914
86.0, 4124.969735738008, 187500.0, -187500.02235174447, -187500.02235174447, 187500.0, -187500.02235174447, -187500.02235174447, -187500.02235174447, 0.032, 0.052000000000000005, 1.002, 192.0, 0.0, 0.0, 0.0, 0.0, 0.0, 0.0, 0.0, 0.0, 0.0, 1.695371793914876E9, 0.0, 2023-09-22 10:36:33.914
87.0, 1645.9601099443569, 187500.0, -187500.02235174447, -187500.02235174447, 187500.0, -187500.02235174447, -187500.02235174447, -187500.02235174447, 0.026000000000000002, 0.046, 1.0, 192.0, 0.0, 208.0, 1.0, 112.0, 31.0, 64.0, 0.0, 0.0, 0.0, 1.6953717939149027E9, 0.0, 2023-09-22 10:36:33.914
88.0, -204.63022048833616, 187500.0, -187500.02235174447, -187500.02235174447, 187500.0, -187500.02235174447, -187500.02235174447, -187500.02235174447, 0.026000000000000002, 0.046, 1.0, 192.0, 0.0, 0.0, 0.0, 0.0, 0.0, 0.0, 0.0, 0.0, 0.0, 1.6953717939149277E9, 0.0, 2023-09-22 10:36:33.914
89.0, 861.2127138629811, 187500.0, -187500.02235174447, -187500.02235174447, 187500.0, -187500.02235174447, -187500.02235174447, -187500.02235174447, 0.026000000000000002, 0.046, 1.0, 192.0, 0.0, 0.0, 0.0, 0.0, 0.0, 0.0, 0.0, 0.0, 0.0, 1.695371793914951E9, 0.0, 2023-09-22 10:36:33.914
90.0, 3868.662282069002, 187500.0, -187500.02235174447, -187500.02235174447, 187500.0, -187500.02235174447, -187500.02235174447, -187500.02235174447, 0.026000000000000002, 0.046, 1.0, 192.0, 0.0, 0.0, 0.0, 0.0, 0.0, 0.0, 0.0, 0.0, 0.0, 1.6953717939149747E9, 0.0, 2023-09-22 10:36:33.914
91.0, 6434.262565882513, 187500.0, -187500.02235174447, -187500.02235174447, 187500.0, -187500.02235174447, -187500.02235174447, -187500.02235174447, 0.026000000000000002, 0.046, 1.0, 192.0, 0.0, 0.0, 0.0, 0.0, 0.0, 0.0, 0.0, 0.0, 0.0, 1.6953717939150295E9, 0.0, 2023-09-22 10:36:33.915
92.0, 8329.086998592258, 187500.0, -187500.02235174447, -187500.02235174447, 187500.0, -187500.02235174447, -187500.02235174447, -187500.02235174447, 0.026000000000000002, 0.046, 1.0, 192.0, 0.0, 0.0, 0.0, 0.0, 0.0, 0.0, 0.0, 0.0, 0.0, 1.6953717939150538E9, 0.0, 2023-09-22 10:36:33.915
93.0, 7219.52405208636, 187500.0, -187500.02235174447, -187500.02235174447, 187500.0, -187500.02235174447, -187500.02235174447, -187500.02235174447, 0.026000000000000002, 0.046, 1.0, 192.0, 0.0, 0.0, 0.0, 0.0, 0.0, 0.0, 0.0, 0.0, 0.0, 1.6953717939150774E9, 0.0, 2023-09-22 10:36:33.915
94.0, 4170.276721748915, 187500.0, -187500.02235174447, -187500.02235174447, 187500.0, -187500.02235174447, -187500.02235174447, -187500.02235174447, 0.026000000000000002, 0.046, 1.0, 192.0, 0.0, 0.0, 0.0, 0.0, 0.0, 0.0, 0.0, 0.0, 0.0, 1.6953717939151206E9, 0.0, 2023-09-22 10:36:33.915
95.0, 1635.8347697061026, 187500.0, -187500.02235174447, -187500.02235174447, 187500.0, -187500.02235174447, -187500.02235174447, -187500.02235174447, 0.026000000000000002, 0.046, 1.0, 192.0, 0.0, 0.0, 0.0, 0.0, 0.0, 0.0, 0.0, 0.0, 0.0, 1.6953717939151673E9, 0.0, 2023-09-22 10:36:33.915
96.0, -191.59915347089213, 187500.0, -187500.02235174447, -187500.02235174447, 187500.0, -187500.02235174447, -187500.02235174447, -187500.02235174447, 0.026000000000000002, 0.046, 1.0, 192.0, 0.0, 0.0, 0.0, 0.0, 0.0, 0.0, 0.0, 0.0, 0.0, 1.6953717939152052E9, 0.0, 2023-09-22 10:36:33.915
97.0, 932.2912612308576, 187500.0, -187500.02235174447, -187500.02235174447, 187500.0, -187500.02235174447, -187500.02235174447, -187500.02235174447, 0.028, 0.046, 1.0, 192.0, 0.0, 224.0, 1.0, 112.0, 31.0, 64.0, 0.0, 0.0, 0.0, 1.695371793915243E9, 0.0, 2023-09-22 10:36:33.915
98.0, 3961.0196901583304, 187500.0, -187500.02235174447, -187500.02235174447, 187500.0, -187500.02235174447, -187500.02235174447, -187500.02235174447, 0.028, 0.046, 1.0, 192.0, 0.0, 0.0, 0.0, 0.0, 0.0, 0.0, 0.0, 0.0, 0.0, 1.6953717939152844E9, 0.0, 2023-09-22 10:36:33.915
99.0, 6444.700830543141, 187500.0, -187500.02235174447, -187500.02235174447, 187500.0, -187500.02235174447, -187500.02235174447, -187500.02235174447, 0.028, 0.046, 1.0, 192.0, 0.0, 0.0, 0.0, 0.0, 0.0, 0.0, 0.0, 0.0, 0.0, 1.69537179391533E9, 0.0, 2023-09-22 10:36:33.915
100.0, 8320.995667099436, 187500.0, -187500.02235174447, -187500.02235174447, 187500.0, -187500.02235174447, -187500.02235174447, -187500.02235174447, 0.028, 0.046, 1.0, 192.0, 0.0, 0.0, 0.0, 0.0, 0.0, 0.0, 0.0, 0.0, 0.0, 1.695371793915374E9, 0.0, 2023-09-22 10:36:33.915
101.0, 7246.681421599558, 187500.0, -187500.02235174447, -187500.02235174447, 187500.0, -187500.02235174447, -187500.02235174447, -187500.02235174447, 0.028, 0.046, 1.0, 192.0, 0.0, 0.0, 0.0, 0.0, 0.0, 0.0, 0.0, 0.0, 0.0, 1.695371793915413E9, 0.0, 2023-09-22 10:36:33.915
102.0, 4258.767278047476, 187500.0, -187500.02235174447, -187500.02235174447, 187500.0, -187500.02235174447, -187500.02235174447, -187500.02235174447, 0.028, 0.046, 1.0, 192.0, 0.0, 0.0, 0.0, 0.0, 0.0, 0.0, 0.0, 0.0, 0.0, 1.6953717939154558E9, 0.0, 2023-09-22 10:36:33.915
103.0, 1717.9550788349009, 187500.0, -187500.02235174447, -187500.02235174447, 187500.0, -187500.02235174447, -187500.02235174447, -187500.02235174447, 0.028, 0.046, 1.0, 192.0, 0.0, 0.0, 0.0, 0.0, 0.0, 0.0, 0.0, 0.0, 0.0, 1.6953717939154987E9, 0.0, 2023-09-22 10:36:33.915
104.0, -169.6720921602359, 187500.0, -187500.02235174447, -187500.02235174447, 187500.0, -187500.02235174447, -187500.02235174447, -187500.02235174447, 0.028, 0.046, 1.0, 192.0, 0.0, 0.0, 0.0, 0.0, 0.0, 0.0, 0.0, 0.0, 0.0, 1.6953717939155388E9, 0.0, 2023-09-22 10:36:33.915
105.0, 908.4643016415002, 187500.0, -187500.02235174447, -187500.02235174447, 187500.0, -187500.02235174447, -187500.02235174447, -187500.02235174447, 0.028, 0.046, 1.0, 192.0, 0.0, 0.0, 0.0, 0.0, 0.0, 0.0, 0.0, 0.0, 0.0, 1.695371793915578E9, 0.0, 2023-09-22 10:36:33.915
106.0, 3947.139256851585, 187500.0, -187500.02235174447, -187500.02235174447, 187500.0, -187500.02235174447, -187500.02235174447, -187500.02235174447, 0.028, 0.046, 1.0, 192.0, 0.0, 0.0, 0.0, 0.0, 0.0, 0.0, 0.0, 0.0, 0.0, 1.6953717939156764E9, 0.0, 2023-09-22 10:36:33.915
107.0, 6515.600563955375, 187500.0, -187500.02235174447, -187500.02235174447, 187500.0, -187500.02235174447, -187500.02235174447, -187500.02235174447, 0.03, 0.046, 1.002, 192.0, 0.0, 240.0, 1.0, 112.0, 31.0, 80.0, 0.0, 0.0, 0.0, 1.695371793915716E9, 0.0, 2023-09-22 10:36:33.915
108.0, 8378.953740472049, 187500.0, -187500.02235174447, -187500.02235174447, 187500.0, -187500.02235174447, -187500.02235174447, -187500.02235174447, 0.03, 0.046, 1.002, 192.0, 0.0, 0.0, 0.0, 0.0, 0.0, 0.0, 0.0, 0.0, 0.0, 1.6953717939157977E9, 0.0, 2023-09-22 10:36:33.915
109.0, 7251.442343168538, 187500.0, -187500.02235174447, -187500.02235174447, 187500.0, -187500.02235174447, -187500.02235174447, -187500.02235174447, 0.03, 0.046, 1.002, 192.0, 0.0, 0.0, 0.0, 0.0, 0.0, 0.0, 0.0, 0.0, 0.0, 1.695371793915846E9, 0.0, 2023-09-22 10:36:33.915
110.0, 4212.700332725088, 187500.0, -187500.02235174447, -187500.02235174447, 187500.0, -187500.02235174447, -187500.02235174447, -187500.02235174447, 0.03, 0.046, 1.002, 192.0, 0.0, 0.0, 0.0, 0.0, 0.0, 0.0, 0.0, 0.0, 0.0, 1.6953717939158912E9, 0.0, 2023-09-22 10:36:33.915
111.0, 1728.9297853624566, 187500.0, -187500.02235174447, -187500.02235174447, 187500.0, -187500.02235174447, -187500.02235174447, -187500.02235174447, 0.03, 0.046, 1.002, 192.0, 0.0, 0.0, 0.0, 0.0, 0.0, 0.0, 0.0, 0.0, 0.0, 1.695371793915936E9, 0.0, 2023-09-22 10:36:33.915
112.0, -103.01919019451026, 187500.0, -187500.02235174447, -187500.02235174447, 187500.0, -187500.02235174447, -187500.02235174447, -187500.02235174447, 0.03, 0.046, 1.002, 192.0, 0.0, 0.0, 0.0, 0.0, 0.0, 0.0, 0.0, 0.0, 0.0, 1.6953717939159808E9, 0.0, 2023-09-22 10:36:33.915
113.0, 985.2648955899353, 187500.0, -187500.02235174447, -187500.02235174447, 187500.0, -187500.02235174447, -187500.02235174447, -187500.02235174447, 0.03, 0.046, 1.002, 192.0, 0.0, 0.0, 0.0, 0.0, 0.0, 0.0, 0.0, 0.0, 0.0, 1.6953717939160247E9, 0.0, 2023-09-22 10:36:33.916
114.0, 3993.5638300852575, 187500.0, -187500.02235174447, -187500.02235174447, 187500.0, -187500.02235174447, -187500.02235174447, -187500.02235174447, 0.03, 0.046, 1.002, 192.0, 0.0, 0.0, 0.0, 0.0, 0.0, 0.0, 0.0, 0.0, 0.0, 1.6953717939160635E9, 0.0, 2023-09-22 10:36:33.916
115.0, 6515.62291569983, 187500.0, -187500.02235174447, -187500.02235174447, 187500.0, -187500.02235174447, -187500.02235174447, -187500.02235174447, 0.03, 0.046, 1.002, 192.0, 0.0, 0.0, 0.0, 0.0, 0.0, 0.0, 0.0, 0.0, 0.0, 1.6953717939161017E9, 0.0, 2023-09-22 10:36:33.916
116.0, 8397.975075003515, 187500.0, -187500.02235174447, -187500.02235174447, 187500.0, -187500.02235174447, -187500.02235174447, -187500.02235174447, 0.03, 0.046, 1.002, 192.0, 0.0, 0.0, 0.0, 0.0, 0.0, 0.0, 0.0, 0.0, 0.0, 1.6953717939161396E9, 0.0, 2023-09-22 10:36:33.916
117.0, 7272.631796912169, 187500.0, -187500.02235174447, -187500.02235174447, 187500.0, -187500.02235174447, -187500.02235174447, -187500.02235174447, 0.03, 0.046, 1.0, 192.0, 0.0, 240.0, 1.0, 112.0, 31.0, 64.0, 0.0, 0.0, 0.0, 1.69537179391618E9, 0.0, 2023-09-22 10:36:33.916
118.0, 4268.803211307909, 187500.0, -187500.02235174447, -187500.02235174447, 187500.0, -187500.02235174447, -187500.02235174447, -187500.02235174447, 0.03, 0.046, 1.0, 192.0, 0.0, 0.0, 0.0, 0.0, 0.0, 0.0, 0.0, 0.0, 0.0, 1.69537179391622E9, 0.0, 2023-09-22 10:36:33.916
119.0, 1754.7460502083363, 187500.0, -187500.02235174447, -187500.02235174447, 187500.0, -187500.02235174447, -187500.02235174447, -187500.02235174447, 0.03, 0.046, 1.0, 192.0, 0.0, 0.0, 0.0, 0.0, 0.0, 0.0, 0.0, 0.0, 0.0, 1.6953717939162598E9, 0.0, 2023-09-22 10:36:33.916
120.0, -140.10073424586466, 187500.0, -187500.02235174447, -187500.02235174447, 187500.0, -187500.02235174447, -187500.02235174447, -187500.02235174447, 0.03, 0.046, 1.0, 192.0, 0.0, 0.0, 0.0, 0.0, 0.0, 0.0, 0.0, 0.0, 0.0, 1.6953717939162982E9, 0.0, 2023-09-22 10:36:33.916
121.0, 981.0404158878823, 187500.0, -187500.02235174447, -187500.02235174447, 187500.0, -187500.02235174447, -187500.02235174447, -187500.02235174447, 0.03, 0.046, 1.0, 192.0, 0.0, 0.0, 0.0, 0.0, 0.0, 0.0, 0.0, 0.0, 0.0, 1.695371794391936E9, 0.0, 2023-09-22 10:36:34.391
122.0, 4018.8213013197546, 187500.0, -187500.02235174447, -187500.02235174447, 187500.0, -187500.02235174447, -187500.02235174447, -187500.02235174447, 0.03, 0.046, 1.0, 192.0, 0.0, 0.0, 0.0, 0.0, 0.0, 0.0, 0.0, 0.0, 0.0, 1.695371794392044E9, 0.0, 2023-09-22 10:36:34.392
123.0, 6555.185503385724, 187500.0, -187500.02235174447, -187500.02235174447, 187500.0, -187500.02235174447, -187500.02235174447, -187500.02235174447, 0.03, 0.046, 1.0, 192.0, 0.0, 0.0, 0.0, 0.0, 0.0, 0.0, 0.0, 0.0, 0.0, 1.6953717943921237E9, 0.0, 2023-09-22 10:36:34.392
124.0, 8376.316234626322, 187500.0, -187500.02235174447, -187500.02235174447, 187500.0, -187500.02235174447, -187500.02235174447, -187500.02235174447, 0.03, 0.046, 1.0, 192.0, 0.0, 0.0, 0.0, 0.0, 0.0, 0.0, 0.0, 0.0, 0.0, 1.6953717943922098E9, 0.0, 2023-09-22 10:36:34.392
125.0, 7277.9515120925325, 187500.0, -187500.02235174447, -187500.02235174447, 187500.0, -187500.02235174447, -187500.02235174447, -187500.02235174447, 0.03, 0.046, 1.0, 192.0, 0.0, 0.0, 0.0, 0.0, 0.0, 0.0, 0.0, 0.0, 0.0, 1.6953717943922863E9, 0.0, 2023-09-22 10:36:34.392
126.0, 4285.701130116121, 187500.0, -187500.02235174447, -187500.02235174447, 187500.0, -187500.02235174447, -187500.02235174447, -187500.02235174447, 0.03, 0.046, 1.0, 192.0, 0.0, 0.0, 0.0, 0.0, 0.0, 0.0, 0.0, 0.0, 0.0, 1.6953717943923335E9, 0.0, 2023-09-22 10:36:34.392
127.0, 1773.5662190397047, 187500.0, -187500.02235174447, -187500.02235174447, 187500.0, -187500.02235174447, -187500.02235174447, -187500.02235174447, 0.028, 0.052000000000000005, 0.998, 192.0, 0.0, 224.0, 1.0, 160.0, 31.0, 48.0, 0.0, 0.0, 0.0, 1.6953717943923788E9, 0.0, 2023-09-22 10:36:34.392
128.0, -85.49542254154952, 187500.0, -187500.02235174447, -187500.02235174447, 187500.0, -187500.02235174447, -187500.02235174447, -187500.02235174447, 0.028, 0.052000000000000005, 0.998, 192.0, 0.0, 0.0, 0.0, 0.0, 0.0, 0.0, 0.0, 0.0, 0.0, 1.6953717943924336E9, 0.0, 2023-09-22 10:36:34.392
129.0, 980.660436232142, 187500.0, -187500.02235174447, -187500.02235174447, 187500.0, -187500.02235174447, -187500.02235174447, -187500.02235174447, 0.028, 0.052000000000000005, 0.998, 192.0, 0.0, 0.0, 0.0, 0.0, 0.0, 0.0, 0.0, 0.0, 0.0, 1.6953717943924832E9, 0.0, 2023-09-22 10:36:34.392
130.0, 4008.226574447939, 187500.0, -187500.02235174447, -187500.02235174447, 187500.0, -187500.02235174447, -187500.02235174447, -187500.02235174447, 0.028, 0.052000000000000005, 0.998, 192.0, 0.0, 0.0, 0.0, 0.0, 0.0, 0.0, 0.0, 0.0, 0.0, 1.6953717943925376E9, 0.0, 2023-09-22 10:36:34.392
131.0, 6564.416773845765, 187500.0, -187500.02235174447, -187500.02235174447, 187500.0, -187500.02235174447, -187500.02235174447, -187500.02235174447, 0.028, 0.052000000000000005, 0.998, 192.0, 0.0, 0.0, 0.0, 0.0, 0.0, 0.0, 0.0, 0.0, 0.0, 1.6953717943925855E9, 0.0, 2023-09-22 10:36:34.392
132.0, 8445.00314533748, 187500.0, -187500.02235174447, -187500.02235174447, 187500.0, -187500.02235174447, -187500.02235174447, -187500.02235174447, 0.028, 0.052000000000000005, 0.998, 192.0, 0.0, 0.0, 0.0, 0.0, 0.0, 0.0, 0.0, 0.0, 0.0, 1.6953717943926315E9, 0.0, 2023-09-22 10:36:34.392
133.0, 7325.985410926987, 187500.0, -187500.02235174447, -187500.02235174447, 187500.0, -187500.02235174447, -187500.02235174447, -187500.02235174447, 0.028, 0.052000000000000005, 0.998, 192.0, 0.0, 0.0, 0.0, 0.0, 0.0, 0.0, 0.0, 0.0, 0.0, 1.6953717943926759E9, 0.0, 2023-09-22 10:36:34.392
134.0, 4300.766205878997, 187500.0, -187500.02235174447, -187500.02235174447, 187500.0, -187500.02235174447, -187500.02235174447, -187500.02235174447, 0.028, 0.052000000000000005, 0.998, 192.0, 0.0, 0.0, 0.0, 0.0, 0.0, 0.0, 0.0, 0.0, 0.0, 1.6953717943927193E9, 0.0, 2023-09-22 10:36:34.392
135.0, 1765.653701502526, 187500.0, -187500.02235174447, -187500.02235174447, 187500.0, -187500.02235174447, -187500.02235174447, -187500.02235174447, 0.028, 0.052000000000000005, 0.998, 192.0, 0.0, 0.0, 0.0, 0.0, 0.0, 0.0, 0.0, 0.0, 0.0, 1.69537179439276E9, 0.0, 2023-09-22 10:36:34.392
136.0, -51.386660502750935, 187500.0, -187500.02235174447, -187500.02235174447, 187500.0, -187500.02235174447, -187500.02235174447, -187500.02235174447, 0.028, 0.052000000000000005, 0.998, 192.0, 0.0, 0.0, 0.0, 0.0, 0.0, 0.0, 0.0, 0.0, 0.0, 1.6953717943929036E9, 0.0, 2023-09-22 10:36:34.392
137.0, 1056.365794702267, 187500.0, -187500.02235174447, -187500.02235174447, 187500.0, -187500.02235174447, -187500.02235174447, -187500.02235174447, 0.03, 0.048, 0.998, 192.0, 0.0, 240.0, 1.0, 128.0, 31.0, 48.0, 0.0, 0.0, 0.0, 1.6953717943929443E9, 0.0, 2023-09-22 10:36:34.392
138.0, 4063.1671623190837, 187500.0, -187500.02235174447, -187500.02235174447, 187500.0, -187500.02235174447, -187500.02235174447, -187500.02235174447, 0.03, 0.048, 0.998, 192.0, 0.0, 0.0, 0.0, 0.0, 0.0, 0.0, 0.0, 0.0, 0.0, 1.6953717943929856E9, 0.0, 2023-09-22 10:36:34.392
139.0, 6560.147590654802, 187500.0, -187500.02235174447, -187500.02235174447, 187500.0, -187500.02235174447, -187500.02235174447, -187500.02235174447, 0.03, 0.048, 0.998, 192.0, 0.0, 0.0, 0.0, 0.0, 0.0, 0.0, 0.0, 0.0, 0.0, 1.6953717943930235E9, 0.0, 2023-09-22 10:36:34.393
140.0, 8401.66311283864, 187500.0, -187500.02235174447, -187500.02235174447, 187500.0, -187500.02235174447, -187500.02235174447, -187500.02235174447, 0.03, 0.048, 0.998, 192.0, 0.0, 0.0, 0.0, 0.0, 0.0, 0.0, 0.0, 0.0, 0.0, 1.6953717943930612E9, 0.0, 2023-09-22 10:36:34.393
141.0, 7323.705532992546, 187500.0, -187500.02235174447, -187500.02235174447, 187500.0, -187500.02235174447, -187500.02235174447, -187500.02235174447, 0.03, 0.048, 0.998, 192.0, 0.0, 0.0, 0.0, 0.0, 0.0, 0.0, 0.0, 0.0, 0.0, 1.695371794393102E9, 0.0, 2023-09-22 10:36:34.393
142.0, 4341.513436021022, 187500.0, -187500.02235174447, -187500.02235174447, 187500.0, -187500.02235174447, -187500.02235174447, -187500.02235174447, 0.03, 0.048, 0.998, 192.0, 0.0, 0.0, 0.0, 0.0, 0.0, 0.0, 0.0, 0.0, 0.0, 1.695371794393144E9, 0.0, 2023-09-22 10:36:34.393
143.0, 1799.3154286522185, 187500.0, -187500.02235174447, -187500.02235174447, 187500.0, -187500.02235174447, -187500.02235174447, -187500.02235174447, 0.03, 0.048, 0.998, 192.0, 0.0, 0.0, 0.0, 0.0, 0.0, 0.0, 0.0, 0.0, 0.0, 1.6953717943931875E9, 0.0, 2023-09-22 10:36:34.393
144.0, -74.25249508053007, 187500.0, -187500.02235174447, -187500.02235174447, 187500.0, -187500.02235174447, -187500.02235174447, -187500.02235174447, 0.03, 0.048, 0.998, 192.0, 0.0, 0.0, 0.0, 0.0, 0.0, 0.0, 0.0, 0.0, 0.0, 1.6953717943932304E9, 0.0, 2023-09-22 10:36:34.393
145.0, 1013.1822244146139, 187500.0, -187500.02235174447, -187500.02235174447, 187500.0, -187500.02235174447, -187500.02235174447, -187500.02235174447, 0.03, 0.048, 0.998, 192.0, 0.0, 0.0, 0.0, 0.0, 0.0, 0.0, 0.0, 0.0, 0.0, 1.6953717943932772E9, 0.0, 2023-09-22 10:36:34.393
146.0, 4047.2527202669053, 187500.0, -187500.02235174447, -187500.02235174447, 187500.0, -187500.02235174447, -187500.02235174447, -187500.02235174447, 0.03, 0.048, 0.998, 192.0, 0.0, 0.0, 0.0, 0.0, 0.0, 0.0, 0.0, 0.0, 0.0, 1.695371794393324E9, 0.0, 2023-09-22 10:36:34.393
147.0, 6635.763542147106, 187500.0, -187500.02235174447, -187500.02235174447, 187500.0, -187500.02235174447, -187500.02235174447, -187500.02235174447, 0.03, 0.052000000000000005, 0.996, 192.0, 0.0, 240.0, 1.0, 160.0, 31.0, 32.0, 0.0, 0.0, 0.0, 1.6953717943933628E9, 0.0, 2023-09-22 10:36:34.393
148.0, 8509.242058902033, 187500.0, -187500.02235174447, -187500.02235174447, 187500.0, -187500.02235174447, -187500.02235174447, -187500.02235174447, 0.03, 0.052000000000000005, 0.996, 192.0, 0.0, 0.0, 0.0, 0.0, 0.0, 0.0, 0.0, 0.0, 0.0, 1.6953717943934042E9, 0.0, 2023-09-22 10:36:34.393
149.0, 7341.07283843432, 187500.0, -187500.02235174447, -187500.02235174447, 187500.0, -187500.02235174447, -187500.02235174447, -187500.02235174447, 0.03, 0.052000000000000005, 0.996, 192.0, 0.0, 0.0, 0.0, 0.0, 0.0, 0.0, 0.0, 0.0, 0.0, 1.6953717943934455E9, 0.0, 2023-09-22 10:36:34.393
150.0, 4309.751607150031, 187500.0, -187500.02235174447, -187500.02235174447, 187500.0, -187500.02235174447, -187500.02235174447, -187500.02235174447, 0.03, 0.052000000000000005, 0.996, 192.0, 0.0, 0.0, 0.0, 0.0, 0.0, 0.0, 0.0, 0.0, 0.0, 1.6953717943934872E9, 0.0, 2023-09-22 10:36:34.393
151.0, 1817.4203416610173, 187500.0, -187500.02235174447, -187500.02235174447, 187500.0, -187500.02235174447, -187500.02235174447, -187500.02235174447, 0.03, 0.052000000000000005, 0.996, 192.0, 0.0, 0.0, 0.0, 0.0, 0.0, 0.0, 0.0, 0.0, 0.0, 1.69537179439372E9, 0.0, 2023-09-22 10:36:34.393
152.0, -14.886261807234504, 187500.0, -187500.02235174447, -187500.02235174447, 187500.0, -187500.02235174447, -187500.02235174447, -187500.02235174447, 0.03, 0.052000000000000005, 0.996, 192.0, 0.0, 0.0, 0.0, 0.0, 0.0, 0.0, 0.0, 0.0, 0.0, 1.695371794393772E9, 0.0, 2023-09-22 10:36:34.393
153.0, 1091.9721236195712, 187500.0, -187500.02235174447, -187500.02235174447, 187500.0, -187500.02235174447, -187500.02235174447, -187500.02235174447, 0.03, 0.052000000000000005, 0.996, 192.0, 0.0, 0.0, 0.0, 0.0, 0.0, 0.0, 0.0, 0.0, 0.0, 1.6953717943938198E9, 0.0, 2023-09-22 10:36:34.393
154.0, 4087.642322497645, 187500.0, -187500.02235174447, -187500.02235174447, 187500.0, -187500.02235174447, -187500.02235174447, -187500.02235174447, 0.03, 0.052000000000000005, 0.996, 192.0, 0.0, 0.0, 0.0, 0.0, 0.0, 0.0, 0.0, 0.0, 0.0, 1.69537179439387E9, 0.0, 2023-09-22 10:36:34.393
155.0, 6599.665474851785, 187500.0, -187500.02235174447, -187500.02235174447, 187500.0, -187500.02235174447, -187500.02235174447, -187500.02235174447, 0.03, 0.052000000000000005, 0.996, 192.0, 0.0, 0.0, 0.0, 0.0, 0.0, 0.0, 0.0, 0.0, 0.0, 1.6953717943939147E9, 0.0, 2023-09-22 10:36:34.393
156.0, 8486.510334790986, 187500.0, -187500.02235174447, -187500.02235174447, 187500.0, -187500.02235174447, -187500.02235174447, -187500.02235174447, 0.03, 0.052000000000000005, 0.996, 192.0, 0.0, 0.0, 0.0, 0.0, 0.0, 0.0, 0.0, 0.0, 0.0, 1.6953717943939557E9, 0.0, 2023-09-22 10:36:34.393
157.0, 7391.520725669948, 187500.0, -187500.02235174447, -187500.02235174447, 187500.0, -187500.02235174447, -187500.02235174447, -187500.02235174447, 0.03, 0.05, 0.998, 192.0, 0.0, 240.0, 1.0, 144.0, 31.0, 48.0, 0.0, 0.0, 0.0, 1.695371794393994E9, 0.0, 2023-09-22 10:36:34.393
158.0, 4346.162598867726, 187500.0, -187500.02235174447, -187500.02235174447, 187500.0, -187500.02235174447, -187500.02235174447, -187500.02235174447, 0.03, 0.05, 0.998, 192.0, 0.0, 0.0, 0.0, 0.0, 0.0, 0.0, 0.0, 0.0, 0.0, 1.695371794394035E9, 0.0, 2023-09-22 10:36:34.394
159.0, 1802.5117281093274, 187500.0, -187500.02235174447, -187500.02235174447, 187500.0, -187500.02235174447, -187500.02235174447, -187500.02235174447, 0.03, 0.05, 0.998, 192.0, 0.0, 0.0, 0.0, 0.0, 0.0, 0.0, 0.0, 0.0, 0.0, 1.6953717943940768E9, 0.0, 2023-09-22 10:36:34.394
160.0, -44.390564488239825, 187500.0, -187500.02235174447, -187500.02235174447, 187500.0, -187500.02235174447, -187500.02235174447, -187500.02235174447, 0.03, 0.05, 0.998, 192.0, 0.0, 0.0, 0.0, 0.0, 0.0, 0.0, 0.0, 0.0, 0.0, 1.6953717943941145E9, 0.0, 2023-09-22 10:36:34.394
161.0, 1067.1616872741804, 187500.0, -187500.02235174447, -187500.02235174447, 187500.0, -187500.02235174447, -187500.02235174447, -187500.02235174447, 0.03, 0.05, 0.998, 192.0, 0.0, 0.0, 0.0, 0.0, 0.0, 0.0, 0.0, 0.0, 0.0, 1.6953717943941524E9, 0.0, 2023-09-22 10:36:34.394
162.0, 4117.884232745675, 187500.0, -187500.02235174447, -187500.02235174447, 187500.0, -187500.02235174447, -187500.02235174447, -187500.02235174447, 0.03, 0.05, 0.998, 192.0, 0.0, 0.0, 0.0, 0.0, 0.0, 0.0, 0.0, 0.0, 0.0, 1.6953717943941891E9, 0.0, 2023-09-22 10:36:34.394
163.0, 6656.304795301533, 187500.0, -187500.02235174447, -187500.02235174447, 187500.0, -187500.02235174447, -187500.02235174447, -187500.02235174447, 0.03, 0.05, 0.998, 192.0, 0.0, 0.0, 0.0, 0.0, 0.0, 0.0, 0.0, 0.0, 0.0, 1.6953717943942332E9, 0.0, 2023-09-22 10:36:34.394
164.0, 8470.908817161182, 187500.0, -187500.02235174447, -187500.02235174447, 187500.0, -187500.02235174447, -187500.02235174447, -187500.02235174447, 0.03, 0.05, 0.998, 192.0, 0.0, 0.0, 0.0, 0.0, 0.0, 0.0, 0.0, 0.0, 0.0, 1.69537179439428E9, 0.0, 2023-09-22 10:36:34.394
165.0, 7347.532492581903, 187500.0, -187500.02235174447, -187500.02235174447, 187500.0, -187500.02235174447, -187500.02235174447, -187500.02235174447, 0.03, 0.05, 0.998, 192.0, 0.0, 0.0, 0.0, 0.0, 0.0, 0.0, 0.0, 0.0, 0.0, 1.6953717943943217E9, 0.0, 2023-09-22 10:36:34.394
166.0, 4377.410337616246, 187500.0, -187500.02235174447, -187500.02235174447, 187500.0, -187500.02235174447, -187500.02235174447, -187500.02235174447, 0.028, 0.05, 0.994, 192.0, 0.0, 224.0, 1.0, 144.0, 31.0, 16.0, 0.0, 0.0, 0.0, 1.6953717943945615E9, 0.0, 2023-09-22 10:36:34.394
167.0, 1868.4046707635728, 187500.0, -187500.02235174447, -187500.02235174447, 187500.0, -187500.02235174447, -187500.02235174447, -187500.02235174447, 0.028, 0.05, 0.994, 192.0, 0.0, 0.0, 0.0, 0.0, 0.0, 0.0, 0.0, 0.0, 0.0, 1.6953717943946161E9, 0.0, 2023-09-22 10:36:34.394
168.0, 5.3867704137290024, 187500.0, -187500.02235174447, -187500.02235174447, 187500.0, -187500.02235174447, -187500.02235174447, -187500.02235174447, 0.028, 0.05, 0.994, 192.0, 0.0, 0.0, 0.0, 0.0, 0.0, 0.0, 0.0, 0.0, 0.0, 1.6953717943946736E9, 0.0, 2023-09-22 10:36:34.394
169.0, 1081.913838614683, 187500.0, -187500.02235174447, -187500.02235174447, 187500.0, -187500.02235174447, -187500.02235174447, -187500.02235174447, 0.028, 0.05, 0.994, 192.0, 0.0, 0.0, 0.0, 0.0, 0.0, 0.0, 0.0, 0.0, 0.0, 1.6953717943947291E9, 0.0, 2023-09-22 10:36:34.394
170.0, 4078.8804386711645, 187500.0, -187500.02235174447, -187500.02235174447, 187500.0, -187500.02235174447, -187500.02235174447, -187500.02235174447, 0.028, 0.05, 0.994, 192.0, 0.0, 0.0, 0.0, 0.0, 0.0, 0.0, 0.0, 0.0, 0.0, 1.695371794394778E9, 0.0, 2023-09-22 10:36:34.394
171.0, 6625.1688152752895, 187500.0, -187500.02235174447, -187500.02235174447, 187500.0, -187500.02235174447, -187500.02235174447, -187500.02235174447, 0.028, 0.05, 0.994, 192.0, 0.0, 0.0, 0.0, 0.0, 0.0, 0.0, 0.0, 0.0, 0.0, 1.6953717943948133E9, 0.0, 2023-09-22 10:36:34.394
172.0, 8497.194468640622, 187500.0, -187500.02235174447, -187500.02235174447, 187500.0, -187500.02235174447, -187500.02235174447, -187500.02235174447, 0.028, 0.05, 0.994, 192.0, 0.0, 0.0, 0.0, 0.0, 0.0, 0.0, 0.0, 0.0, 0.0, 1.695371794394857E9, 0.0, 2023-09-22 10:36:34.394
173.0, 7383.407042432671, 187500.0, -187500.02235174447, -187500.02235174447, 187500.0, -187500.02235174447, -187500.02235174447, -187500.02235174447, 0.028, 0.05, 0.994, 192.0, 0.0, 0.0, 0.0, 0.0, 0.0, 0.0, 0.0, 0.0, 0.0, 1.6953717943948998E9, 0.0, 2023-09-22 10:36:34.394
174.0, 4367.173238655715, 187500.0, -187500.02235174447, -187500.02235174447, 187500.0, -187500.02235174447, -187500.02235174447, -187500.02235174447, 0.028, 0.05, 0.994, 192.0, 0.0, 0.0, 0.0, 0.0, 0.0, 0.0, 0.0, 0.0, 0.0, 1.6953717943949628E9, 0.0, 2023-09-22 10:36:34.394
175.0, 1820.1025509956542, 187500.0, -187500.02235174447, -187500.02235174447, 187500.0, -187500.02235174447, -187500.02235174447, -187500.02235174447, 0.028, 0.05, 0.994, 192.0, 0.0, 0.0, 0.0, 0.0, 0.0, 0.0, 0.0, 0.0, 0.0, 1.6953717943950129E9, 0.0, 2023-09-22 10:36:34.395
176.0, -36.03101206195498, 187500.0, -187500.02235174447, -187500.02235174447, 187500.0, -187500.02235174447, -187500.02235174447, -187500.02235174447, 0.026000000000000002, 0.048, 0.998, 192.0, 0.0, 208.0, 1.0, 128.0, 31.0, 48.0, 0.0, 0.0, 0.0, 1.6953717943950555E9, 0.0, 2023-09-22 10:36:34.395
177.0, 1122.7281239900738, 187500.0, -187500.02235174447, -187500.02235174447, 187500.0, -187500.02235174447, -187500.02235174447, -187500.02235174447, 0.026000000000000002, 0.048, 0.998, 192.0, 0.0, 0.0, 0.0, 0.0, 0.0, 0.0, 0.0, 0.0, 0.0, 1.695371794395105E9, 0.0, 2023-09-22 10:36:34.395
178.0, 4134.24570968696, 187500.0, -187500.02235174447, -187500.02235174447, 187500.0, -187500.02235174447, -187500.02235174447, -187500.02235174447, 0.026000000000000002, 0.048, 0.998, 192.0, 0.0, 0.0, 0.0, 0.0, 0.0, 0.0, 0.0, 0.0, 0.0, 1.6953717943951643E9, 0.0, 2023-09-22 10:36:34.395
179.0, 6672.0627751425245, 187500.0, -187500.02235174447, -187500.02235174447, 187500.0, -187500.02235174447, -187500.02235174447, -187500.02235174447, 0.026000000000000002, 0.048, 0.998, 192.0, 0.0, 0.0, 0.0, 0.0, 0.0, 0.0, 0.0, 0.0, 0.0, 1.695371794395226E9, 0.0, 2023-09-22 10:36:34.395
180.0, 8499.250829130511, 187500.0, -187500.02235174447, -187500.02235174447, 187500.0, -187500.02235174447, -187500.02235174447, -187500.02235174447, 0.026000000000000002, 0.048, 0.998, 192.0, 0.0, 0.0, 0.0, 0.0, 0.0, 0.0, 0.0, 0.0, 0.0, 1.6953717943952823E9, 0.0, 2023-09-22 10:36:34.395
181.0, 7405.222345021051, 187500.0, -187500.02235174447, -187500.02235174447, 187500.0, -187500.02235174447, -187500.02235174447, -187500.02235174447, 0.026000000000000002, 0.048, 0.998, 192.0, 0.0, 0.0, 0.0, 0.0, 0.0, 0.0, 0.0, 0.0, 0.0, 1.6953717943955352E9, 0.0, 2023-09-22 10:36:34.395
182.0, 4402.220773961637, 187500.0, -187500.02235174447, -187500.02235174447, 187500.0, -187500.02235174447, -187500.02235174447, -187500.02235174447, 0.026000000000000002, 0.048, 0.998, 192.0, 0.0, 0.0, 0.0, 0.0, 0.0, 0.0, 0.0, 0.0, 0.0, 1.695371794395586E9, 0.0, 2023-09-22 10:36:34.395
183.0, 1886.1519558610864, 187500.0, -187500.02235174447, -187500.02235174447, 187500.0, -187500.02235174447, -187500.02235174447, -187500.02235174447, 0.026000000000000002, 0.048, 0.998, 192.0, 0.0, 0.0, 0.0, 0.0, 0.0, 0.0, 0.0, 0.0, 0.0, 1.6953717943956373E9, 0.0, 2023-09-22 10:36:34.395
184.0, -0.4246831446508342, 187500.0, -187500.02235174447, -187500.02235174447, 187500.0, -187500.02235174447, -187500.02235174447, -187500.02235174447, 0.026000000000000002, 0.048, 0.998, 192.0, 0.0, 0.0, 0.0, 0.0, 0.0, 0.0, 0.0, 0.0, 0.0, 1.6953717943957057E9, 0.0, 2023-09-22 10:36:34.395
185.0, 1079.432794980144, 187500.0, -187500.02235174447, -187500.02235174447, 187500.0, -187500.02235174447, -187500.02235174447, -187500.02235174447, 0.026000000000000002, 0.048, 0.998, 192.0, 0.0, 0.0, 0.0, 0.0, 0.0, 0.0, 0.0, 0.0, 0.0, 1.6953717943957536E9, 0.0, 2023-09-22 10:36:34.395
186.0, 4114.330305377282, 187500.0, -187500.02235174447, -187500.02235174447, 187500.0, -187500.02235174447, -187500.02235174447, -187500.02235174447, 0.028, 0.048, 1.002, 192.0, 0.0, 224.0, 1.0, 128.0, 31.0, 80.0, 0.0, 0.0, 0.0, 1.6953717943957992E9, 0.0, 2023-09-22 10:36:34.395
187.0, 6684.780917737594, 187500.0, -187500.02235174447, -187500.02235174447, 187500.0, -187500.02235174447, -187500.02235174447, -187500.02235174447, 0.028, 0.048, 1.002, 192.0, 0.0, 0.0, 0.0, 0.0, 0.0, 0.0, 0.0, 0.0, 0.0, 1.695371794395862E9, 0.0, 2023-09-22 10:36:34.395
188.0, 8530.722085323583, 187500.0, -187500.02235174447, -187500.02235174447, 187500.0, -187500.02235174447, -187500.02235174447, -187500.02235174447, 0.028, 0.048, 1.002, 192.0, 0.0, 0.0, 0.0, 0.0, 0.0, 0.0, 0.0, 0.0, 0.0, 1.6953717943959265E9, 0.0, 2023-09-22 10:36:34.395
189.0, 7387.273894223439, 187500.0, -187500.02235174447, -187500.02235174447, 187500.0, -187500.02235174447, -187500.02235174447, -187500.02235174447, 0.028, 0.048, 1.002, 192.0, 0.0, 0.0, 0.0, 0.0, 0.0, 0.0, 0.0, 0.0, 0.0, 1.695371794395982E9, 0.0, 2023-09-22 10:36:34.395
190.0, 4355.036241416484, 187500.0, -187500.02235174447, -187500.02235174447, 187500.0, -187500.02235174447, -187500.02235174447, -187500.02235174447, 0.028, 0.048, 1.002, 192.0, 0.0, 0.0, 0.0, 0.0, 0.0, 0.0, 0.0, 0.0, 0.0, 1.6953717943960228E9, 0.0, 2023-09-22 10:36:34.396
191.0, 1840.0179553053326, 187500.0, -187500.02235174447, -187500.02235174447, 187500.0, -187500.02235174447, -187500.02235174447, -187500.02235174447, 0.028, 0.048, 1.002, 192.0, 0.0, 0.0, 0.0, 0.0, 0.0, 0.0, 0.0, 0.0, 0.0, 1.6953717943960743E9, 0.0, 2023-09-22 10:36:34.396
192.0, 32.47708469356116, 187500.0, -187500.02235174447, -187500.02235174447, 187500.0, -187500.02235174447, -187500.02235174447, -187500.02235174447, 0.028, 0.048, 1.002, 192.0, 0.0, 0.0, 0.0, 0.0, 0.0, 0.0, 0.0, 0.0, 0.0, 1.695371794396122E9, 0.0, 2023-09-22 10:36:34.396
193.0, 1139.3578218648222, 187500.0, -187500.02235174447, -187500.02235174447, 187500.0, -187500.02235174447, -187500.02235174447, -187500.02235174447, 0.028, 0.048, 1.002, 192.0, 0.0, 0.0, 0.0, 0.0, 0.0, 0.0, 0.0, 0.0, 0.0, 1.69537179439617E9, 0.0, 2023-09-22 10:36:34.396
194.0, 4119.784131024377, 187500.0, -187500.02235174447, -187500.02235174447, 187500.0, -187500.02235174447, -187500.02235174447, -187500.02235174447, 0.028, 0.048, 1.002, 192.0, 0.0, 0.0, 0.0, 0.0, 0.0, 0.0, 0.0, 0.0, 0.0, 1.6953717943962157E9, 0.0, 2023-09-22 10:36:34.396
195.0, 6633.014277579103, 187500.0, -187500.02235174447, -187500.02235174447, 187500.0, -187500.02235174447, -187500.02235174447, -187500.02235174447, 0.028, 0.048, 1.002, 192.0, 0.0, 0.0, 0.0, 0.0, 0.0, 0.0, 0.0, 0.0, 0.0, 1.6953717943962553E9, 0.0, 2023-09-22 10:36:34.396
196.0, 8534.700695836627, 187500.0, -187500.02235174447, -187500.02235174447, 187500.0, -187500.02235174447, -187500.02235174447, -187500.02235174447, 0.036000000000000004, 0.05, 1.002, 192.0, 1.0, 32.0, 1.0, 144.0, 31.0, 80.0, 0.0, 0.0, 0.0, 1.6953717943964942E9, 0.0, 2023-09-22 10:36:34.396
197.0, 7410.698522412601, 187500.0, -187500.02235174447, -187500.02235174447, 187500.0, -187500.02235174447, -187500.02235174447, -187500.02235174447, 0.036000000000000004, 0.05, 1.002, 192.0, 0.0, 0.0, 0.0, 0.0, 0.0, 0.0, 0.0, 0.0, 0.0, 1.695371794396561E9, 0.0, 2023-09-22 10:36:34.396
198.0, 4401.304352438969, 187500.0, -187500.02235174447, -187500.02235174447, 187500.0, -187500.02235174447, -187500.02235174447, -187500.02235174447, 0.036000000000000004, 0.05, 1.002, 192.0, 0.0, 0.0, 0.0, 0.0, 0.0, 0.0, 0.0, 0.0, 0.0, 1.695371794396614E9, 0.0, 2023-09-22 10:36:34.396
199.0, 1834.8323505917015, 187500.0, -187500.02235174447, -187500.02235174447, 187500.0, -187500.02235174447, -187500.02235174447, -187500.02235174447, 0.036000000000000004, 0.05, 1.002, 192.0, 0.0, 0.0, 0.0, 0.0, 0.0, 0.0, 0.0, 0.0, 0.0, 1.6953717943966608E9, 0.0, 2023-09-22 10:36:34.396
200.0, -20.585956643337806, 187500.0, -187500.02235174447, -187500.02235174447, 187500.0, -187500.02235174447, -187500.02235174447, -187500.02235174447, 0.036000000000000004, 0.05, 1.002, 192.0, 0.0, 0.0, 0.0, 0.0, 0.0, 0.0, 0.0, 0.0, 0.0, 1.695371794396706E9, 0.0, 2023-09-22 10:36:34.396
201.0, 1087.814699150884, 187500.0, -187500.02235174447, -187500.02235174447, 187500.0, -187500.02235174447, -187500.02235174447, -187500.02235174447, 0.036000000000000004, 0.05, 1.002, 192.0, 0.0, 0.0, 0.0, 0.0, 0.0, 0.0, 0.0, 0.0, 0.0, 1.695371794396752E9, 0.0, 2023-09-22 10:36:34.396
202.0, 4152.752954095955, 187500.0, -187500.02235174447, -187500.02235174447, 187500.0, -187500.02235174447, -187500.02235174447, -187500.02235174447, 0.036000000000000004, 0.05, 1.002, 192.0, 0.0, 0.0, 0.0, 0.0, 0.0, 0.0, 0.0, 0.0, 0.0, 1.6953717943968189E9, 0.0, 2023-09-22 10:36:34.396
203.0, 6689.519487562119, 187500.0, -187500.02235174447, -187500.02235174447, 187500.0, -187500.02235174447, -187500.02235174447, -187500.02235174447, 0.036000000000000004, 0.05, 1.002, 192.0, 0.0, 0.0, 0.0, 0.0, 0.0, 0.0, 0.0, 0.0, 0.0, 1.6953717943968935E9, 0.0, 2023-09-22 10:36:34.396
204.0, 8516.282858405455, 187500.0, -187500.02235174447, -187500.02235174447, 187500.0, -187500.02235174447, -187500.02235174447, -187500.02235174447, 0.036000000000000004, 0.05, 1.002, 192.0, 0.0, 0.0, 0.0, 0.0, 0.0, 0.0, 0.0, 0.0, 0.0, 1.6953717943969717E9, 0.0, 2023-09-22 10:36:34.396
205.0, 7390.17962100263, 187500.0, -187500.02235174447, -187500.02235174447, 187500.0, -187500.02235174447, -187500.02235174447, -187500.02235174447, 0.036000000000000004, 0.05, 1.002, 192.0, 0.0, 0.0, 0.0, 0.0, 0.0, 0.0, 0.0, 0.0, 0.0, 1.69537179439705E9, 0.0, 2023-09-22 10:36:34.397
206.0, 4385.591076086888, 187500.0, -187500.02235174447, -187500.02235174447, 187500.0, -187500.02235174447, -187500.02235174447, -187500.02235174447, 0.028, 0.05, 1.004, 192.0, 0.0, 224.0, 1.0, 144.0, 31.0, 96.0, 0.0, 0.0, 0.0, 1.6953717943971252E9, 0.0, 2023-09-22 10:36:34.397
207.0, 1869.7010719419804, 187500.0, -187500.02235174447, -187500.02235174447, 187500.0, -187500.02235174447, -187500.02235174447, -187500.02235174447, 0.028, 0.05, 1.004, 192.0, 0.0, 0.0, 0.0, 0.0, 0.0, 0.0, 0.0, 0.0, 0.0, 1.6953717943972108E9, 0.0, 2023-09-22 10:36:34.397
208.0, 24.966898556577988, 187500.0, -187500.02235174447, -187500.02235174447, 187500.0, -187500.02235174447, -187500.02235174447, -187500.02235174447, 0.028, 0.05, 1.004, 192.0, 0.0, 0.0, 0.0, 0.0, 0.0, 0.0, 0.0, 0.0, 0.0, 1.6953717943972957E9, 0.0, 2023-09-22 10:36:34.397
209.0, 1095.9730858770713, 187500.0, -187500.02235174447, -187500.02235174447, 187500.0, -187500.02235174447, -187500.02235174447, -187500.02235174447, 0.028, 0.05, 1.004, 192.0, 0.0, 0.0, 0.0, 0.0, 0.0, 0.0, 0.0, 0.0, 0.0, 1.6953717943973925E9, 0.0, 2023-09-22 10:36:34.397
210.0, 4081.0932613722402, 187500.0, -187500.02235174447, -187500.02235174447, 187500.0, -187500.02235174447, -187500.02235174447, -187500.02235174447, 0.028, 0.05, 1.004, 192.0, 0.0, 0.0, 0.0, 0.0, 0.0, 0.0, 0.0, 0.0, 0.0, 1.6953717943974736E9, 0.0, 2023-09-22 10:36:34.397
211.0, 6638.9598416042145, 187500.0, -187500.02235174447, -187500.02235174447, 187500.0, -187500.02235174447, -187500.02235174447, -187500.02235174447, 0.028, 0.05, 1.004, 192.0, 0.0, 0.0, 0.0, 0.0, 0.0, 0.0, 0.0, 0.0, 0.0, 1.6953717943975582E9, 0.0, 2023-09-22 10:36:34.397
212.0, 8516.171099683179, 187500.0, -187500.02235174447, -187500.02235174447, 187500.0, -187500.02235174447, -187500.02235174447, -187500.02235174447, 0.028, 0.05, 1.004, 192.0, 0.0, 0.0, 0.0, 0.0, 0.0, 0.0, 0.0, 0.0, 0.0, 1.6953717943977952E9, 0.0, 2023-09-22 10:36:34.397
213.0, 7407.882202611233, 187500.0, -187500.02235174447, -187500.02235174447, 187500.0, -187500.02235174447, -187500.02235174447, -187500.02235174447, 0.028, 0.05, 1.004, 192.0, 0.0, 0.0, 0.0, 0.0, 0.0, 0.0, 0.0, 0.0, 0.0, 1.69537179439787E9, 0.0, 2023-09-22 10:36:34.397
214.0, 4389.01089298855, 187500.0, -187500.02235174447, -187500.02235174447, 187500.0, -187500.02235174447, -187500.02235174447, -187500.02235174447, 0.028, 0.05, 1.004, 192.0, 0.0, 0.0, 0.0, 0.0, 0.0, 0.0, 0.0, 0.0, 0.0, 1.695371794397942E9, 0.0, 2023-09-22 10:36:34.397
215.0, 1866.1471445735867, 187500.0, -187500.02235174447, -187500.02235174447, 187500.0, -187500.02235174447, -187500.02235174447, -187500.02235174447, 0.028, 0.05, 1.004, 192.0, 0.0, 0.0, 0.0, 0.0, 0.0, 0.0, 0.0, 0.0, 0.0, 1.6953717943980007E9, 0.0, 2023-09-22 10:36:34.398
216.0, -7.957221026089314, 187500.0, -187500.02235174447, -187500.02235174447, 187500.0, -187500.02235174447, -187500.02235174447, -187500.02235174447, 0.024, 0.05, 0.998, 192.0, 0.0, 192.0, 1.0, 144.0, 31.0, 48.0, 0.0, 0.0, 0.0, 1.6953717943980553E9, 0.0, 2023-09-22 10:36:34.398
217.0, 1124.0468769129368, 187500.0, -187500.02235174447, -187500.02235174447, 187500.0, -187500.02235174447, -187500.02235174447, -187500.02235174447, 0.024, 0.05, 0.998, 192.0, 0.0, 0.0, 0.0, 0.0, 0.0, 0.0, 0.0, 0.0, 0.0, 1.695371794398112E9, 0.0, 2023-09-22 10:36:34.398
218.0, 4157.20095124256, 187500.0, -187500.02235174447, -187500.02235174447, 187500.0, -187500.02235174447, -187500.02235174447, -187500.02235174447, 0.024, 0.05, 0.998, 192.0, 0.0, 0.0, 0.0, 0.0, 0.0, 0.0, 0.0, 0.0, 0.0, 1.6953717943981633E9, 0.0, 2023-09-22 10:36:34.398
219.0, 6664.172609349801, 187500.0, -187500.02235174447, -187500.02235174447, 187500.0, -187500.02235174447, -187500.02235174447, -187500.02235174447, 0.024, 0.05, 0.998, 192.0, 0.0, 0.0, 0.0, 0.0, 0.0, 0.0, 0.0, 0.0, 0.0, 1.6953717943982136E9, 0.0, 2023-09-22 10:36:34.398
220.0, 8490.377186581754, 187500.0, -187500.02235174447, -187500.02235174447, 187500.0, -187500.02235174447, -187500.02235174447, -187500.02235174447, 0.024, 0.05, 0.998, 192.0, 0.0, 0.0, 0.0, 0.0, 0.0, 0.0, 0.0, 0.0, 0.0, 1.6953717943982656E9, 0.0, 2023-09-22 10:36:34.398
221.0, 7409.536231700926, 187500.0, -187500.02235174447, -187500.02235174447, 187500.0, -187500.02235174447, -187500.02235174447, -187500.02235174447, 0.024, 0.05, 0.998, 192.0, 0.0, 0.0, 0.0, 0.0, 0.0, 0.0, 0.0, 0.0, 0.0, 1.6953717943983257E9, 0.0, 2023-09-22 10:36:34.398
222.0, 4434.384934232823, 187500.0, -187500.02235174447, -187500.02235174447, 187500.0, -187500.02235174447, -187500.02235174447, -187500.02235174447, 0.024, 0.05, 0.998, 192.0, 0.0, 0.0, 0.0, 0.0, 0.0, 0.0, 0.0, 0.0, 0.0, 1.6953717943983772E9, 0.0, 2023-09-22 10:36:34.398
223.0, 1936.4657326299828, 187500.0, -187500.02235174447, -187500.02235174447, 187500.0, -187500.02235174447, -187500.02235174447, -187500.02235174447, 0.024, 0.05, 0.998, 192.0, 0.0, 0.0, 0.0, 0.0, 0.0, 0.0, 0.0, 0.0, 0.0, 1.6953717943984191E9, 0.0, 2023-09-22 10:36:34.398
224.0, 26.531520668449485, 187500.0, -187500.02235174447, -187500.02235174447, 187500.0, -187500.02235174447, -187500.02235174447, -187500.02235174447, 0.024, 0.05, 0.998, 192.0, 0.0, 0.0, 0.0, 0.0, 0.0, 0.0, 0.0, 0.0, 0.0, 1.6953717943984804E9, 0.0, 2023-09-22 10:36:34.398
225.0, 1092.396806764222, 187500.0, -187500.02235174447, -187500.02235174447, 187500.0, -187500.02235174447, -187500.02235174447, -187500.02235174447, 0.024, 0.05, 0.998, 192.0, 0.0, 0.0, 0.0, 0.0, 0.0, 0.0, 0.0, 0.0, 0.0, 1.695371794398576E9, 0.0, 2023-09-22 10:36:34.398
226.0, 4159.01144254344, 187500.0, -187500.02235174447, -187500.02235174447, 187500.0, -187500.02235174447, -187500.02235174447, -187500.02235174447, 0.024, 0.054, 0.998, 192.0, 0.0, 192.0, 1.0, 176.0, 31.0, 48.0, 0.0, 0.0, 0.0, 1.695371794398638E9, 0.0, 2023-09-22 10:36:34.398
227.0, 6731.518415393641, 187500.0, -187500.02235174447, -187500.02235174447, 187500.0, -187500.02235174447, -187500.02235174447, -187500.02235174447, 0.024, 0.054, 0.998, 192.0, 0.0, 0.0, 0.0, 0.0, 0.0, 0.0, 0.0, 0.0, 0.0, 1.6953717943988545E9, 0.0, 2023-09-22 10:36:34.398
228.0, 8562.84154210586, 187500.0, -187500.02235174447, -187500.02235174447, 187500.0, -187500.02235174447, -187500.02235174447, -187500.02235174447, 0.024, 0.054, 0.998, 192.0, 0.0, 0.0, 0.0, 0.0, 0.0, 0.0, 0.0, 0.0, 0.0, 1.6953717943989089E9, 0.0, 2023-09-22 10:36:34.398
229.0, 7416.711141671079, 187500.0, -187500.02235174447, -187500.02235174447, 187500.0, -187500.02235174447, -187500.02235174447, -187500.02235174447, 0.024, 0.054, 0.998, 192.0, 0.0, 0.0, 0.0, 0.0, 0.0, 0.0, 0.0, 0.0, 0.0, 1.6953717943989663E9, 0.0, 2023-09-22 10:36:34.398
230.0, 4377.767965527531, 187500.0, -187500.02235174447, -187500.02235174447, 187500.0, -187500.02235174447, -187500.02235174447, -187500.02235174447, 0.024, 0.054, 0.998, 192.0, 0.0, 0.0, 0.0, 0.0, 0.0, 0.0, 0.0, 0.0, 0.0, 1.6953717943990257E9, 0.0, 2023-09-22 10:36:34.399
231.0, 1860.7603741598577, 187500.0, -187500.02235174447, -187500.02235174447, 187500.0, -187500.02235174447, -187500.02235174447, -187500.02235174447, 0.024, 0.054, 0.998, 192.0, 0.0, 0.0, 0.0, 0.0, 0.0, 0.0, 0.0, 0.0, 0.0, 1.6953717943990788E9, 0.0, 2023-09-22 10:36:34.399
232.0, 19.066038020376926, 187500.0, -187500.02235174447, -187500.02235174447, 187500.0, -187500.02235174447, -187500.02235174447, -187500.02235174447, 0.024, 0.054, 0.998, 192.0, 0.0, 0.0, 0.0, 0.0, 0.0, 0.0, 0.0, 0.0, 0.0, 1.6953717943991296E9, 0.0, 2023-09-22 10:36:34.399
233.0, 1106.3889987932444, 187500.0, -187500.02235174447, -187500.02235174447, 187500.0, -187500.02235174447, -187500.02235174447, -187500.02235174447, 0.024, 0.054, 0.998, 192.0, 0.0, 0.0, 0.0, 0.0, 0.0, 0.0, 0.0, 0.0, 0.0, 1.6953717943991742E9, 0.0, 2023-09-22 10:36:34.399
234.0, 4106.082511673273, 187500.0, -187500.02235174447, -187500.02235174447, 187500.0, -187500.02235174447, -187500.02235174447, -187500.02235174447, 0.024, 0.054, 0.998, 192.0, 0.0, 0.0, 0.0, 0.0, 0.0, 0.0, 0.0, 0.0, 0.0, 1.6953717943992164E9, 0.0, 2023-09-22 10:36:34.399
235.0, 6638.937489859759, 187500.0, -187500.02235174447, -187500.02235174447, 187500.0, -187500.02235174447, -187500.02235174447, -187500.02235174447, 0.024, 0.054, 0.998, 192.0, 0.0, 0.0, 0.0, 0.0, 0.0, 0.0, 0.0, 0.0, 0.0, 1.6953717943992589E9, 0.0, 2023-09-22 10:36:34.399
236.0, 8522.653105575217, 187500.0, -187500.02235174447, -187500.02235174447, 187500.0, -187500.02235174447, -187500.02235174447, -187500.02235174447, 0.026000000000000002, 0.05, 0.994, 192.0, 0.0, 208.0, 1.0, 144.0, 31.0, 16.0, 0.0, 0.0, 0.0, 1.6953717943993015E9, 0.0, 2023-09-22 10:36:34.399
237.0, 7420.846214395311, 187500.0, -187500.02235174447, -187500.02235174447, 187500.0, -187500.02235174447, -187500.02235174447, -187500.02235174447, 0.026000000000000002, 0.05, 0.994, 192.0, 0.0, 0.0, 0.0, 0.0, 0.0, 0.0, 0.0, 0.0, 0.0, 1.6953717943993716E9, 0.0, 2023-09-22 10:36:34.399
238.0, 4421.286811982013, 187500.0, -187500.02235174447, -187500.02235174447, 187500.0, -187500.02235174447, -187500.02235174447, -187500.02235174447, 0.026000000000000002, 0.05, 0.994, 192.0, 0.0, 0.0, 0.0, 0.0, 0.0, 0.0, 0.0, 0.0, 0.0, 1.695371794399484E9, 0.0, 2023-09-22 10:36:34.399
239.0, 1881.8157174367568, 187500.0, -187500.02235174447, -187500.02235174447, 187500.0, -187500.02235174447, -187500.02235174447, -187500.02235174447, 0.026000000000000002, 0.05, 0.994, 192.0, 0.0, 0.0, 0.0, 0.0, 0.0, 0.0, 0.0, 0.0, 0.0, 1.6953717943995323E9, 0.0, 2023-09-22 10:36:34.399
240.0, 8.784235570935676, 187500.0, -187500.02235174447, -187500.02235174447, 187500.0, -187500.02235174447, -187500.02235174447, -187500.02235174447, 0.026000000000000002, 0.05, 0.994, 192.0, 0.0, 0.0, 0.0, 0.0, 0.0, 0.0, 0.0, 0.0, 0.0, 1.6953717943995953E9, 0.0, 2023-09-22 10:36:34.399
241.0, 1094.9225538876717, 187500.0, -187500.02235174447, -187500.02235174447, 187500.0, -187500.02235174447, -187500.02235174447, -187500.02235174447, 0.026000000000000002, 0.05, 0.994, 192.0, 0.0, 0.0, 0.0, 0.0, 0.0, 0.0, 0.0, 0.0, 0.0, 1.695371794871971E9, 0.0, 2023-09-22 10:36:34.871
242.0, 4137.240843443971, 187500.0, -187500.02235174447, -187500.02235174447, 187500.0, -187500.02235174447, -187500.02235174447, -187500.02235174447, 0.026000000000000002, 0.05, 0.994, 192.0, 0.0, 0.0, 0.0, 0.0, 0.0, 0.0, 0.0, 0.0, 0.0, 1.6953717948725371E9, 0.0, 2023-09-22 10:36:34.872
243.0, 6693.922781219814, 187500.0, -187500.02235174447, -187500.02235174447, 187500.0, -187500.02235174447, -187500.02235174447, -187500.02235174447, 0.026000000000000002, 0.05, 0.994, 192.0, 0.0, 0.0, 0.0, 0.0, 0.0, 0.0, 0.0, 0.0, 0.0, 1.6953717948726048E9, 0.0, 2023-09-22 10:36:34.872
244.0, 8522.407236386209, 187500.0, -187500.02235174447, -187500.02235174447, 187500.0, -187500.02235174447, -187500.02235174447, -187500.02235174447, 0.026000000000000002, 0.05, 0.994, 192.0, 0.0, 0.0, 0.0, 0.0, 0.0, 0.0, 0.0, 0.0, 0.0, 1.695371794872656E9, 0.0, 2023-09-22 10:36:34.872
245.0, 7356.808466530856, 187500.0, -187500.02235174447, -187500.02235174447, 187500.0, -187500.02235174447, -187500.02235174447, -187500.02235174447, 0.026000000000000002, 0.05, 0.994, 192.0, 0.0, 0.0, 0.0, 0.0, 0.0, 0.0, 0.0, 0.0, 0.0, 1.6953717948727036E9, 0.0, 2023-09-22 10:36:34.872
246.0, 4364.1557531542485, 187500.0, -187500.02235174447, -187500.02235174447, 187500.0, -187500.02235174447, -187500.02235174447, -187500.02235174447, 0.03, 0.048, 0.994, 192.0, 0.0, 240.0, 1.0, 128.0, 31.0, 16.0, 0.0, 0.0, 0.0, 1.6953717948727465E9, 0.0, 2023-09-22 10:36:34.872
247.0, 1879.0217493798436, 187500.0, -187500.02235174447, -187500.02235174447, 187500.0, -187500.02235174447, -187500.02235174447, -187500.02235174447, 0.03, 0.048, 0.994, 192.0, 0.0, 0.0, 0.0, 0.0, 0.0, 0.0, 0.0, 0.0, 0.0, 1.6953717948727908E9, 0.0, 2023-09-22 10:36:34.872
248.0, 28.23025324705282, 187500.0, -187500.02235174447, -187500.02235174447, 187500.0, -187500.02235174447, -187500.02235174447, -187500.02235174447, 0.03, 0.048, 0.994, 192.0, 0.0, 0.0, 0.0, 0.0, 0.0, 0.0, 0.0, 0.0, 0.0, 1.6953717948728335E9, 0.0, 2023-09-22 10:36:34.872
249.0, 1086.2500770390127, 187500.0, -187500.02235174447, -187500.02235174447, 187500.0, -187500.02235174447, -187500.02235174447, -187500.02235174447, 0.03, 0.048, 0.994, 192.0, 0.0, 0.0, 0.0, 0.0, 0.0, 0.0, 0.0, 0.0, 0.0, 1.6953717948728783E9, 0.0, 2023-09-22 10:36:34.872
250.0, 4090.615104510201, 187500.0, -187500.02235174447, -187500.02235174447, 187500.0, -187500.02235174447, -187500.02235174447, -187500.02235174447, 0.03, 0.048, 0.994, 192.0, 0.0, 0.0, 0.0, 0.0, 0.0, 0.0, 0.0, 0.0, 0.0, 1.695371794872924E9, 0.0, 2023-09-22 10:36:34.872
251.0, 6680.779955480094, 187500.0, -187500.02235174447, -187500.02235174447, 187500.0, -187500.02235174447, -187500.02235174447, -187500.02235174447, 0.03, 0.048, 0.994, 192.0, 0.0, 0.0, 0.0, 0.0, 0.0, 0.0, 0.0, 0.0, 0.0, 1.6953717948729715E9, 0.0, 2023-09-22 10:36:34.872
252.0, 8576.230237034588, 187500.0, -187500.02235174447, -187500.02235174447, 187500.0, -187500.02235174447, -187500.02235174447, -187500.02235174447, 0.03, 0.048, 0.994, 192.0, 0.0, 0.0, 0.0, 0.0, 0.0, 0.0, 0.0, 0.0, 0.0, 1.6953717948730152E9, 0.0, 2023-09-22 10:36:34.873
253.0, 7442.370944305771, 187500.0, -187500.02235174447, -187500.02235174447, 187500.0, -187500.02235174447, -187500.02235174447, -187500.02235174447, 0.03, 0.048, 0.994, 192.0, 0.0, 0.0, 0.0, 0.0, 0.0, 0.0, 0.0, 0.0, 0.0, 1.6953717948730605E9, 0.0, 2023-09-22 10:36:34.873
254.0, 4396.185802958704, 187500.0, -187500.02235174447, -187500.02235174447, 187500.0, -187500.02235174447, -187500.02235174447, -187500.02235174447, 0.03, 0.048, 0.994, 192.0, 0.0, 0.0, 0.0, 0.0, 0.0, 0.0, 0.0, 0.0, 0.0, 1.695371794873104E9, 0.0, 2023-09-22 10:36:34.873
255.0, 1823.5447196417715, 187500.0, -187500.02235174447, -187500.02235174447, 187500.0, -187500.02235174447, -187500.02235174447, -187500.02235174447, 0.03, 0.048, 0.994, 192.0, 0.0, 0.0, 0.0, 0.0, 0.0, 0.0, 0.0, 0.0, 0.0, 1.6953717948731508E9, 0.0, 2023-09-22 10:36:34.873
0.0, -2.3692849122625486, 187500.0, -187500.02235174447, -187500.02235174447, 187500.0, -187500.02235174447, -187500.02235174447, -187500.02235174447, 0.03, 0.05, 0.994, 192.0, 0.0, 240.0, 1.0, 144.0, 31.0, 16.0, 0.0, 0.0, 0.0, 1.695371794873201E9, 0.0, 2023-09-22 10:36:34.873
1.0, 1146.0633452014142, 187500.0, -187500.02235174447, -187500.02235174447, 187500.0, -187500.02235174447, -187500.02235174447, -187500.02235174447, 0.03, 0.05, 0.994, 192.0, 0.0, 0.0, 0.0, 0.0, 0.0, 0.0, 0.0, 0.0, 0.0, 1.695371794873347E9, 0.0, 2023-09-22 10:36:34.873
2.0, 4156.329233208804, 187500.0, -187500.02235174447, -187500.02235174447, 187500.0, -187500.02235174447, -187500.02235174447, -187500.02235174447, 0.03, 0.05, 0.994, 192.0, 0.0, 0.0, 0.0, 0.0, 0.0, 0.0, 0.0, 0.0, 0.0, 1.69537179487339E9, 0.0, 2023-09-22 10:36:34.873
3.0, 6635.629431680373, 187500.0, -187500.02235174447, -187500.02235174447, 187500.0, -187500.02235174447, -187500.02235174447, -187500.02235174447, 0.03, 0.05, 0.994, 192.0, 0.0, 0.0, 0.0, 0.0, 0.0, 0.0, 0.0, 0.0, 0.0, 1.695371794873438E9, 0.0, 2023-09-22 10:36:34.873
4.0, 8484.252808600999, 187500.0, -187500.02235174447, -187500.02235174447, 187500.0, -187500.02235174447, -187500.02235174447, -187500.02235174447, 0.03, 0.05, 0.994, 192.0, 0.0, 0.0, 0.0, 0.0, 0.0, 0.0, 0.0, 0.0, 0.0, 1.6953717948734896E9, 0.0, 2023-09-22 10:36:34.873
5.0, 7390.358434958272, 187500.0, -187500.02235174447, -187500.02235174447, 187500.0, -187500.02235174447, -187500.02235174447, -187500.02235174447, 0.03, 0.05, 0.994, 192.0, 0.0, 0.0, 0.0, 0.0, 0.0, 0.0, 0.0, 0.0, 0.0, 1.6953717948735442E9, 0.0, 2023-09-22 10:36:34.873
6.0, 4425.287774239513, 187500.0, -187500.02235174447, -187500.02235174447, 187500.0, -187500.02235174447, -187500.02235174447, -187500.02235174447, 0.03, 0.05, 0.994, 192.0, 0.0, 0.0, 0.0, 0.0, 0.0, 0.0, 0.0, 0.0, 0.0, 1.6953717948736126E9, 0.0, 2023-09-22 10:36:34.873
7.0, 1903.1392816471198, 187500.0, -187500.02235174447, -187500.02235174447, 187500.0, -187500.02235174447, -187500.02235174447, -187500.02235174447, 0.03, 0.05, 0.994, 192.0, 0.0, 0.0, 0.0, 0.0, 0.0, 0.0, 0.0, 0.0, 0.0, 1.6953717948736534E9, 0.0, 2023-09-22 10:36:34.873
8.0, -0.4246831446508342, 187500.0, -187500.02235174447, -187500.02235174447, 187500.0, -187500.02235174447, -187500.02235174447, -187500.02235174447, 0.03, 0.05, 0.994, 192.0, 0.0, 0.0, 0.0, 0.0, 0.0, 0.0, 0.0, 0.0, 0.0, 1.6953717948736987E9, 0.0, 2023-09-22 10:36:34.873
9.0, 1077.5999519348088, 187500.0, -187500.02235174447, -187500.02235174447, 187500.0, -187500.02235174447, -187500.02235174447, -187500.02235174447, 0.03, 0.05, 0.994, 192.0, 0.0, 0.0, 0.0, 0.0, 0.0, 0.0, 0.0, 0.0, 0.0, 1.695371794873748E9, 0.0, 2023-09-22 10:36:34.873
10.0, 4135.475055632002, 187500.0, -187500.02235174447, -187500.02235174447, 187500.0, -187500.02235174447, -187500.02235174447, -187500.02235174447, 0.034, 0.05, 0.996, 192.0, 1.0, 16.0, 1.0, 144.0, 31.0, 32.0, 0.0, 0.0, 0.0, 1.6953717948737934E9, 0.0, 2023-09-22 10:36:34.873
11.0, 6685.630284026895, 187500.0, -187500.02235174447, -187500.02235174447, 187500.0, -187500.02235174447, -187500.02235174447, -187500.02235174447, 0.034, 0.05, 0.996, 192.0, 0.0, 0.0, 0.0, 0.0, 0.0, 0.0, 0.0, 0.0, 0.0, 1.6953717948738477E9, 0.0, 2023-09-22 10:36:34.873
12.0, 8548.067039020902, 187500.0, -187500.02235174447, -187500.02235174447, 187500.0, -187500.02235174447, -187500.02235174447, -187500.02235174447, 0.034, 0.05, 0.996, 192.0, 0.0, 0.0, 0.0, 0.0, 0.0, 0.0, 0.0, 0.0, 0.0, 1.6953717948739016E9, 0.0, 2023-09-22 10:36:34.873
13.0, 7417.47110098256, 187500.0, -187500.02235174447, -187500.02235174447, 187500.0, -187500.02235174447, -187500.02235174447, -187500.02235174447, 0.034, 0.05, 0.996, 192.0, 0.0, 0.0, 0.0, 0.0, 0.0, 0.0, 0.0, 0.0, 0.0, 1.695371794873952E9, 0.0, 2023-09-22 10:36:34.873
14.0, 4362.009985686539, 187500.0, -187500.02235174447, -187500.02235174447, 187500.0, -187500.02235174447, -187500.02235174447, -187500.02235174447, 0.034, 0.05, 0.996, 192.0, 0.0, 0.0, 0.0, 0.0, 0.0, 0.0, 0.0, 0.0, 0.0, 1.6953717948740084E9, 0.0, 2023-09-22 10:36:34.874
15.0, 1839.4144582050394, 187500.0, -187500.02235174447, -187500.02235174447, 187500.0, -187500.02235174447, -187500.02235174447, -187500.02235174447, 0.034, 0.05, 0.996, 192.0, 0.0, 0.0, 0.0, 0.0, 0.0, 0.0, 0.0, 0.0, 0.0, 1.6953717948740623E9, 0.0, 2023-09-22 10:36:34.874
16.0, 16.383828685740077, 187500.0, -187500.02235174447, -187500.02235174447, 187500.0, -187500.02235174447, -187500.02235174447, -187500.02235174447, 0.034, 0.05, 0.996, 192.0, 0.0, 0.0, 0.0, 0.0, 0.0, 0.0, 0.0, 0.0, 0.0, 1.6953717948742526E9, 0.0, 2023-09-22 10:36:34.874
17.0, 1149.75138303654, 187500.0, -187500.02235174447, -187500.02235174447, 187500.0, -187500.02235174447, -187500.02235174447, -187500.02235174447, 0.034, 0.05, 0.996, 192.0, 0.0, 0.0, 0.0, 0.0, 0.0, 0.0, 0.0, 0.0, 0.0, 1.695371794874304E9, 0.0, 2023-09-22 10:36:34.874
18.0, 4147.433238915592, 187500.0, -187500.02235174447, -187500.02235174447, 187500.0, -187500.02235174447, -187500.02235174447, -187500.02235174447, 0.034, 0.05, 0.996, 192.0, 0.0, 0.0, 0.0, 0.0, 0.0, 0.0, 0.0, 0.0, 0.0, 1.6953717948743534E9, 0.0, 2023-09-22 10:36:34.874
19.0, 6640.300946271533, 187500.0, -187500.02235174447, -187500.02235174447, 187500.0, -187500.02235174447, -187500.02235174447, -187500.02235174447, 0.034, 0.05, 0.996, 192.0, 0.0, 0.0, 0.0, 0.0, 0.0, 0.0, 0.0, 0.0, 0.0, 1.6953717948744028E9, 0.0, 2023-09-22 10:36:34.874
20.0, 8512.013675214492, 187500.0, -187500.02235174447, -187500.02235174447, 187500.0, -187500.02235174447, -187500.02235174447, -187500.02235174447, 0.032, 0.052000000000000005, 0.996, 192.0, 1.0, 0.0, 1.0, 160.0, 31.0, 32.0, 0.0, 0.0, 0.0, 1.695371794874457E9, 0.0, 2023-09-22 10:36:34.874
21.0, 7475.518581332992, 187500.0, -187500.02235174447, -187500.02235174447, 187500.0, -187500.02235174447, -187500.02235174447, -187500.02235174447, 0.032, 0.052000000000000005, 0.996, 192.0, 0.0, 0.0, 0.0, 0.0, 0.0, 0.0, 0.0, 0.0, 0.0, 1.6953717948745232E9, 0.0, 2023-09-22 10:36:34.874
22.0, 4464.872713669863, 187500.0, -187500.02235174447, -187500.02235174447, 187500.0, -187500.02235174447, -187500.02235174447, -187500.02235174447, 0.032, 0.052000000000000005, 0.996, 192.0, 0.0, 0.0, 0.0, 0.0, 0.0, 0.0, 0.0, 0.0, 0.0, 1.69537179487458E9, 0.0, 2023-09-22 10:36:34.874
23.0, 1912.9293457185443, 187500.0, -187500.02235174447, -187500.02235174447, 187500.0, -187500.02235174447, -187500.02235174447, -187500.02235174447, 0.032, 0.052000000000000005, 0.996, 192.0, 0.0, 0.0, 0.0, 0.0, 0.0, 0.0, 0.0, 0.0, 0.0, 1.6953717948746328E9, 0.0, 2023-09-22 10:36:34.874
24.0, 22.754075855502588, 187500.0, -187500.02235174447, -187500.02235174447, 187500.0, -187500.02235174447, -187500.02235174447, -187500.02235174447, 0.032, 0.052000000000000005, 0.996, 192.0, 0.0, 0.0, 0.0, 0.0, 0.0, 0.0, 0.0, 0.0, 0.0, 1.6953717948746858E9, 0.0, 2023-09-22 10:36:34.874
25.0, 1122.4822548010654, 187500.0, -187500.02235174447, -187500.02235174447, 187500.0, -187500.02235174447, -187500.02235174447, -187500.02235174447, 0.032, 0.052000000000000005, 0.996, 192.0, 0.0, 0.0, 0.0, 0.0, 0.0, 0.0, 0.0, 0.0, 0.0, 1.6953717948747356E9, 0.0, 2023-09-22 10:36:34.874
26.0, 4181.810221887854, 187500.0, -187500.02235174447, -187500.02235174447, 187500.0, -187500.02235174447, -187500.02235174447, -187500.02235174447, 0.032, 0.052000000000000005, 0.996, 192.0, 0.0, 0.0, 0.0, 0.0, 0.0, 0.0, 0.0, 0.0, 0.0, 1.695371794874787E9, 0.0, 2023-09-22 10:36:34.874
27.0, 6712.631191328906, 187500.0, -187500.02235174447, -187500.02235174447, 187500.0, -187500.02235174447, -187500.02235174447, -187500.02235174447, 0.032, 0.052000000000000005, 0.996, 192.0, 0.0, 0.0, 0.0, 0.0, 0.0, 0.0, 0.0, 0.0, 0.0, 1.6953717948748367E9, 0.0, 2023-09-22 10:36:34.874
28.0, 8549.519902410497, 187500.0, -187500.02235174447, -187500.02235174447, 187500.0, -187500.02235174447, -187500.02235174447, -187500.02235174447, 0.032, 0.052000000000000005, 0.996, 192.0, 0.0, 0.0, 0.0, 0.0, 0.0, 0.0, 0.0, 0.0, 0.0, 1.6953717948748932E9, 0.0, 2023-09-22 10:36:34.874
29.0, 7412.374903246749, 187500.0, -187500.02235174447, -187500.02235174447, 187500.0, -187500.02235174447, -187500.02235174447, -187500.02235174447, 0.032, 0.052000000000000005, 0.996, 192.0, 0.0, 0.0, 0.0, 0.0, 0.0, 0.0, 0.0, 0.0, 0.0, 1.6953717948749516E9, 0.0, 2023-09-22 10:36:34.874
30.0, 4427.500596940589, 187500.0, -187500.02235174447, -187500.02235174447, 187500.0, -187500.02235174447, -187500.02235174447, -187500.02235174447, 0.032, 0.05, 0.994, 192.0, 1.0, 0.0, 1.0, 144.0, 31.0, 16.0, 0.0, 0.0, 0.0, 1.6953717948750029E9, 0.0, 2023-09-22 10:36:34.875
31.0, 1946.7922385683346, 187500.0, -187500.02235174447, -187500.02235174447, 187500.0, -187500.02235174447, -187500.02235174447, -187500.02235174447, 0.032, 0.05, 0.994, 192.0, 0.0, 0.0, 0.0, 0.0, 0.0, 0.0, 0.0, 0.0, 0.0, 1.695371794875137E9, 0.0, 2023-09-22 10:36:34.875
32.0, 79.34869281634008, 187500.0, -187500.02235174447, -187500.02235174447, 187500.0, -187500.02235174447, -187500.02235174447, -187500.02235174447, 0.032, 0.05, 0.994, 192.0, 0.0, 0.0, 0.0, 0.0, 0.0, 0.0, 0.0, 0.0, 0.0, 1.6953717948751867E9, 0.0, 2023-09-22 10:36:34.875
33.0, 1145.8845312457718, 187500.0, -187500.02235174447, -187500.02235174447, 187500.0, -187500.02235174447, -187500.02235174447, -187500.02235174447, 0.032, 0.05, 0.994, 192.0, 0.0, 0.0, 0.0, 0.0, 0.0, 0.0, 0.0, 0.0, 0.0, 1.6953717948752353E9, 0.0, 2023-09-22 10:36:34.875
34.0, 4147.455590660046, 187500.0, -187500.02235174447, -187500.02235174447, 187500.0, -187500.02235174447, -187500.02235174447, -187500.02235174447, 0.032, 0.05, 0.994, 192.0, 0.0, 0.0, 0.0, 0.0, 0.0, 0.0, 0.0, 0.0, 0.0, 1.6953717948752844E9, 0.0, 2023-09-22 10:36:34.875
35.0, 6711.42419712832, 187500.0, -187500.02235174447, -187500.02235174447, 187500.0, -187500.02235174447, -187500.02235174447, -187500.02235174447, 0.032, 0.05, 0.994, 192.0, 0.0, 0.0, 0.0, 0.0, 0.0, 0.0, 0.0, 0.0, 0.0, 1.695371794875334E9, 0.0, 2023-09-22 10:36:34.875
36.0, 8605.46631878213, 187500.0, -187500.02235174447, -187500.02235174447, 187500.0, -187500.02235174447, -187500.02235174447, -187500.02235174447, 0.032, 0.05, 0.994, 192.0, 0.0, 0.0, 0.0, 0.0, 0.0, 0.0, 0.0, 0.0, 0.0, 1.6953717948753805E9, 0.0, 2023-09-22 10:36:34.875
37.0, 7457.23485436855, 187500.0, -187500.02235174447, -187500.02235174447, 187500.0, -187500.02235174447, -187500.02235174447, -187500.02235174447, 0.032, 0.05, 0.994, 192.0, 0.0, 0.0, 0.0, 0.0, 0.0, 0.0, 0.0, 0.0, 0.0, 1.6953717948754296E9, 0.0, 2023-09-22 10:36:34.875
38.0, 4405.037093763005, 187500.0, -187500.02235174447, -187500.02235174447, 187500.0, -187500.02235174447, -187500.02235174447, -187500.02235174447, 0.032, 0.05, 0.994, 192.0, 0.0, 0.0, 0.0, 0.0, 0.0, 0.0, 0.0, 0.0, 0.0, 1.6953717948754888E9, 0.0, 2023-09-22 10:36:34.875
39.0, 1860.5815602042153, 187500.0, -187500.02235174447, -187500.02235174447, 187500.0, -187500.02235174447, -187500.02235174447, -187500.02235174447, 0.032, 0.05, 0.994, 192.0, 0.0, 0.0, 0.0, 0.0, 0.0, 0.0, 0.0, 0.0, 0.0, 1.6953717948755631E9, 0.0, 2023-09-22 10:36:34.875
40.0, 5.431473902639616, 187500.0, -187500.02235174447, -187500.02235174447, 187500.0, -187500.02235174447, -187500.02235174447, -187500.02235174447, 0.028, 0.05, 0.998, 192.0, 0.0, 224.0, 1.0, 144.0, 31.0, 48.0, 0.0, 0.0, 0.0, 1.6953717948756108E9, 0.0, 2023-09-22 10:36:34.875
41.0, 1153.7746970384953, 187500.0, -187500.02235174447, -187500.02235174447, 187500.0, -187500.02235174447, -187500.02235174447, -187500.02235174447, 0.028, 0.05, 0.998, 192.0, 0.0, 0.0, 0.0, 0.0, 0.0, 0.0, 0.0, 0.0, 0.0, 1.695371794875652E9, 0.0, 2023-09-22 10:36:34.875
42.0, 4163.258273989949, 187500.0, -187500.02235174447, -187500.02235174447, 187500.0, -187500.02235174447, -187500.02235174447, -187500.02235174447, 0.028, 0.05, 0.998, 192.0, 0.0, 0.0, 0.0, 0.0, 0.0, 0.0, 0.0, 0.0, 0.0, 1.6953717948756976E9, 0.0, 2023-09-22 10:36:34.875
43.0, 6675.326129832999, 187500.0, -187500.02235174447, -187500.02235174447, 187500.0, -187500.02235174447, -187500.02235174447, -187500.02235174447, 0.028, 0.05, 0.998, 192.0, 0.0, 0.0, 0.0, 0.0, 0.0, 0.0, 0.0, 0.0, 0.0, 1.6953717948757427E9, 0.0, 2023-09-22 10:36:34.875
44.0, 8519.25564041801, 187500.0, -187500.02235174447, -187500.02235174447, 187500.0, -187500.02235174447, -187500.02235174447, -187500.02235174447, 0.028, 0.05, 0.998, 192.0, 0.0, 0.0, 0.0, 0.0, 0.0, 0.0, 0.0, 0.0, 0.0, 1.6953717948757904E9, 0.0, 2023-09-22 10:36:34.875
45.0, 7406.764615388467, 187500.0, -187500.02235174447, -187500.02235174447, 187500.0, -187500.02235174447, -187500.02235174447, -187500.02235174447, 0.028, 0.05, 0.998, 192.0, 0.0, 0.0, 0.0, 0.0, 0.0, 0.0, 0.0, 0.0, 0.0, 1.6953717948758385E9, 0.0, 2023-09-22 10:36:34.875
46.0, 4457.854265910896, 187500.0, -187500.02235174447, -187500.02235174447, 187500.0, -187500.02235174447, -187500.02235174447, -187500.02235174447, 0.028, 0.05, 0.998, 192.0, 0.0, 0.0, 0.0, 0.0, 0.0, 0.0, 0.0, 0.0, 0.0, 1.6953717948759377E9, 0.0, 2023-09-22 10:36:34.875
47.0, 1952.1343054931529, 187500.0, -187500.02235174447, -187500.02235174447, 187500.0, -187500.02235174447, -187500.02235174447, -187500.02235174447, 0.028, 0.05, 0.998, 192.0, 0.0, 0.0, 0.0, 0.0, 0.0, 0.0, 0.0, 0.0, 0.0, 1.6953717948759775E9, 0.0, 2023-09-22 10:36:34.875
48.0, 65.55766648741562, 187500.0, -187500.02235174447, -187500.02235174447, 187500.0, -187500.02235174447, -187500.02235174447, -187500.02235174447, 0.028, 0.05, 0.998, 192.0, 0.0, 0.0, 0.0, 0.0, 0.0, 0.0, 0.0, 0.0, 0.0, 1.6953717948760035E9, 0.0, 2023-09-22 10:36:34.876
49.0, 1121.3423158338446, 187500.0, -187500.02235174447, -187500.02235174447, 187500.0, -187500.02235174447, -187500.02235174447, -187500.02235174447, 0.028, 0.05, 0.998, 192.0, 0.0, 0.0, 0.0, 0.0, 0.0, 0.0, 0.0, 0.0, 0.0, 1.695371794876028E9, 0.0, 2023-09-22 10:36:34.876
50.0, 4128.456607873036, 187500.0, -187500.02235174447, -187500.02235174447, 187500.0, -187500.02235174447, -187500.02235174447, -187500.02235174447, 0.012, 0.054, 0.994, 192.0, 0.0, 96.0, 1.0, 176.0, 31.0, 16.0, 0.0, 0.0, 0.0, 1.6953717948760529E9, 0.0, 2023-09-22 10:36:34.876
51.0, 6694.101595175457, 187500.0, -187500.02235174447, -187500.02235174447, 187500.0, -187500.02235174447, -187500.02235174447, -187500.02235174447, 0.012, 0.054, 0.994, 192.0, 0.0, 0.0, 0.0, 0.0, 0.0, 0.0, 0.0, 0.0, 0.0, 1.6953717948760788E9, 0.0, 2023-09-22 10:36:34.876
52.0, 8579.27007428051, 187500.0, -187500.02235174447, -187500.02235174447, 187500.0, -187500.02235174447, -187500.02235174447, -187500.02235174447, 0.012, 0.054, 0.994, 192.0, 0.0, 0.0, 0.0, 0.0, 0.0, 0.0, 0.0, 0.0, 0.0, 1.6953717948761032E9, 0.0, 2023-09-22 10:36:34.876
53.0, 7446.729534474556, 187500.0, -187500.02235174447, -187500.02235174447, 187500.0, -187500.02235174447, -187500.02235174447, -187500.02235174447, 0.012, 0.054, 0.994, 192.0, 0.0, 0.0, 0.0, 0.0, 0.0, 0.0, 0.0, 0.0, 0.0, 1.6953717948761277E9, 0.0, 2023-09-22 10:36:34.876
54.0, 4380.0031399730615, 187500.0, -187500.02235174447, -187500.02235174447, 187500.0, -187500.02235174447, -187500.02235174447, -187500.02235174447, 0.012, 0.054, 0.994, 192.0, 0.0, 0.0, 0.0, 0.0, 0.0, 0.0, 0.0, 0.0, 0.0, 1.6953717948761525E9, 0.0, 2023-09-22 10:36:34.876
55.0, 1881.6369034811144, 187500.0, -187500.02235174447, -187500.02235174447, 187500.0, -187500.02235174447, -187500.02235174447, -187500.02235174447, 0.012, 0.054, 0.994, 192.0, 0.0, 0.0, 0.0, 0.0, 0.0, 0.0, 0.0, 0.0, 0.0, 1.6953717948761768E9, 0.0, 2023-09-22 10:36:34.876
56.0, 77.47114628209428, 187500.0, -187500.02235174447, -187500.02235174447, 187500.0, -187500.02235174447, -187500.02235174447, -187500.02235174447, 0.012, 0.054, 0.994, 192.0, 0.0, 0.0, 0.0, 0.0, 0.0, 0.0, 0.0, 0.0, 0.0, 1.695371794876202E9, 0.0, 2023-09-22 10:36:34.876
57.0, 1185.0894910203804, 187500.0, -187500.02235174447, -187500.02235174447, 187500.0, -187500.02235174447, -187500.02235174447, -187500.02235174447, 0.012, 0.054, 0.994, 192.0, 0.0, 0.0, 0.0, 0.0, 0.0, 0.0, 0.0, 0.0, 0.0, 1.6953717948762355E9, 0.0, 2023-09-22 10:36:34.876
58.0, 4171.930750838608, 187500.0, -187500.02235174447, -187500.02235174447, 187500.0, -187500.02235174447, -187500.02235174447, -187500.02235174447, 0.012, 0.054, 0.994, 192.0, 0.0, 0.0, 0.0, 0.0, 0.0, 0.0, 0.0, 0.0, 0.0, 1.69537179487626E9, 0.0, 2023-09-22 10:36:34.876
59.0, 6689.2065631397445, 187500.0, -187500.02235174447, -187500.02235174447, 187500.0, -187500.02235174447, -187500.02235174447, -187500.02235174447, 0.018000000000000002, 0.054, 0.996, 192.0, 0.0, 144.0, 1.0, 176.0, 31.0, 32.0, 0.0, 0.0, 0.0, 1.6953717948762848E9, 0.0, 2023-09-22 10:36:34.876
60.0, 8555.510169924519, 187500.0, -187500.02235174447, -187500.02235174447, 187500.0, -187500.02235174447, -187500.02235174447, -187500.02235174447, 0.018000000000000002, 0.054, 0.996, 192.0, 0.0, 0.0, 0.0, 0.0, 0.0, 0.0, 0.0, 0.0, 0.0, 1.6953717948763103E9, 0.0, 2023-09-22 10:36:34.876
61.0, 7463.091011415841, 187500.0, -187500.02235174447, -187500.02235174447, 187500.0, -187500.02235174447, -187500.02235174447, -187500.02235174447, 0.018000000000000002, 0.054, 0.996, 192.0, 0.0, 0.0, 0.0, 0.0, 0.0, 0.0, 0.0, 0.0, 0.0, 1.695371794876368E9, 0.0, 2023-09-22 10:36:34.876
62.0, 4440.710477913675, 187500.0, -187500.02235174447, -187500.02235174447, 187500.0, -187500.02235174447, -187500.02235174447, -187500.02235174447, 0.018000000000000002, 0.054, 0.996, 192.0, 0.0, 0.0, 0.0, 0.0, 0.0, 0.0, 0.0, 0.0, 0.0, 1.6953717948763936E9, 0.0, 2023-09-22 10:36:34.876
63.0, 1913.4434358410165, 187500.0, -187500.02235174447, -187500.02235174447, 187500.0, -187500.02235174447, -187500.02235174447, -187500.02235174447, 0.018000000000000002, 0.054, 0.996, 192.0, 0.0, 0.0, 0.0, 0.0, 0.0, 0.0, 0.0, 0.0, 0.0, 1.695371794876418E9, 0.0, 2023-09-22 10:36:34.876
64.0, 22.7764275999579, 187500.0, -187500.02235174447, -187500.02235174447, 187500.0, -187500.02235174447, -187500.02235174447, -187500.02235174447, 0.018000000000000002, 0.054, 0.996, 192.0, 0.0, 0.0, 0.0, 0.0, 0.0, 0.0, 0.0, 0.0, 0.0, 1.6953717948764427E9, 0.0, 2023-09-22 10:36:34.876
65.0, 1134.038106684459, 187500.0, -187500.02235174447, -187500.02235174447, 187500.0, -187500.02235174447, -187500.02235174447, -187500.02235174447, 0.018000000000000002, 0.054, 0.996, 192.0, 0.0, 0.0, 0.0, 0.0, 0.0, 0.0, 0.0, 0.0, 0.0, 1.6953717948764672E9, 0.0, 2023-09-22 10:36:34.876
66.0, 4193.54488772689, 187500.0, -187500.02235174447, -187500.02235174447, 187500.0, -187500.02235174447, -187500.02235174447, -187500.02235174447, 0.018000000000000002, 0.054, 0.996, 192.0, 0.0, 0.0, 0.0, 0.0, 0.0, 0.0, 0.0, 0.0, 0.0, 1.6953717948764915E9, 0.0, 2023-09-22 10:36:34.876
67.0, 6751.590281914507, 187500.0, -187500.02235174447, -187500.02235174447, 187500.0, -187500.02235174447, -187500.02235174447, -187500.02235174447, 0.018000000000000002, 0.054, 0.996, 192.0, 0.0, 0.0, 0.0, 0.0, 0.0, 0.0, 0.0, 0.0, 0.0, 1.6953717948765159E9, 0.0, 2023-09-22 10:36:34.876
68.0, 8580.342958014364, 187500.0, -187500.02235174447, -187500.02235174447, 187500.0, -187500.02235174447, -187500.02235174447, -187500.02235174447, 0.018000000000000002, 0.054, 0.996, 192.0, 0.0, 0.0, 0.0, 0.0, 0.0, 0.0, 0.0, 0.0, 0.0, 1.6953717948765404E9, 0.0, 2023-09-22 10:36:34.876
69.0, 7433.5643569903805, 187500.0, -187500.02235174447, -187500.02235174447, 187500.0, -187500.02235174447, -187500.02235174447, -187500.02235174447, 0.022, 0.052000000000000005, 1.004, 192.0, 0.0, 176.0, 1.0, 160.0, 31.0, 96.0, 0.0, 0.0, 0.0, 1.6953717948765786E9, 0.0, 2023-09-22 10:36:34.876
70.0, 4426.7853411180195, 187500.0, -187500.02235174447, -187500.02235174447, 187500.0, -187500.02235174447, -187500.02235174447, -187500.02235174447, 0.022, 0.052000000000000005, 1.004, 192.0, 0.0, 0.0, 0.0, 0.0, 0.0, 0.0, 0.0, 0.0, 0.0, 1.6953717948766184E9, 0.0, 2023-09-22 10:36:34.876
71.0, 1940.6008053542146, 187500.0, -187500.02235174447, -187500.02235174447, 187500.0, -187500.02235174447, -187500.02235174447, -187500.02235174447, 0.022, 0.052000000000000005, 1.004, 192.0, 0.0, 0.0, 0.0, 0.0, 0.0, 0.0, 0.0, 0.0, 0.0, 1.695371794876657E9, 0.0, 2023-09-22 10:36:34.876
72.0, 89.02699816548802, 187500.0, -187500.02235174447, -187500.02235174447, 187500.0, -187500.02235174447, -187500.02235174447, -187500.02235174447, 0.022, 0.052000000000000005, 1.004, 192.0, 0.0, 0.0, 0.0, 0.0, 0.0, 0.0, 0.0, 0.0, 0.0, 1.6953717948767009E9, 0.0, 2023-09-22 10:36:34.876
73.0, 1132.9875746950597, 187500.0, -187500.02235174447, -187500.02235174447, 187500.0, -187500.02235174447, -187500.02235174447, -187500.02235174447, 0.022, 0.052000000000000005, 1.004, 192.0, 0.0, 0.0, 0.0, 0.0, 0.0, 0.0, 0.0, 0.0, 0.0, 1.6953717948767464E9, 0.0, 2023-09-22 10:36:34.876
74.0, 4115.805520511331, 187500.0, -187500.02235174447, -187500.02235174447, 187500.0, -187500.02235174447, -187500.02235174447, -187500.02235174447, 0.022, 0.052000000000000005, 1.004, 192.0, 0.0, 0.0, 0.0, 0.0, 0.0, 0.0, 0.0, 0.0, 0.0, 1.6953717948767939E9, 0.0, 2023-09-22 10:36:34.876
75.0, 6678.544781034563, 187500.0, -187500.02235174447, -187500.02235174447, 187500.0, -187500.02235174447, -187500.02235174447, -187500.02235174447, 0.022, 0.052000000000000005, 1.004, 192.0, 0.0, 0.0, 0.0, 0.0, 0.0, 0.0, 0.0, 0.0, 0.0, 1.6953717948768415E9, 0.0, 2023-09-22 10:36:34.876
76.0, 8592.189382575678, 187500.0, -187500.02235174447, -187500.02235174447, 187500.0, -187500.02235174447, -187500.02235174447, -187500.02235174447, 0.022, 0.052000000000000005, 1.004, 192.0, 0.0, 0.0, 0.0, 0.0, 0.0, 0.0, 0.0, 0.0, 0.0, 1.6953717948769383E9, 0.0, 2023-09-22 10:36:34.876
77.0, 7511.549593394947, 187500.0, -187500.02235174447, -187500.02235174447, 187500.0, -187500.02235174447, -187500.02235174447, -187500.02235174447, 0.022, 0.052000000000000005, 1.004, 192.0, 0.0, 0.0, 0.0, 0.0, 0.0, 0.0, 0.0, 0.0, 0.0, 1.6953717948769863E9, 0.0, 2023-09-22 10:36:34.876
78.0, 4479.803678966007, 187500.0, -187500.02235174447, -187500.02235174447, 187500.0, -187500.02235174447, -187500.02235174447, -187500.02235174447, 0.022, 0.052000000000000005, 1.004, 192.0, 0.0, 0.0, 0.0, 0.0, 0.0, 0.0, 0.0, 0.0, 0.0, 1.695371794877034E9, 0.0, 2023-09-22 10:36:34.877
79.0, 1919.52311033286, 187500.0, -187500.02235174447, -187500.02235174447, 187500.0, -187500.02235174447, -187500.02235174447, -187500.02235174447, 0.03, 0.05, 1.0, 192.0, 0.0, 240.0, 1.0, 144.0, 31.0, 64.0, 0.0, 0.0, 0.0, 1.6953717948770807E9, 0.0, 2023-09-22 10:36:34.877
80.0, 67.83754442185693, 187500.0, -187500.02235174447, -187500.02235174447, 187500.0, -187500.02235174447, -187500.02235174447, -187500.02235174447, 0.03, 0.05, 1.0, 192.0, 0.0, 0.0, 0.0, 0.0, 0.0, 0.0, 0.0, 0.0, 0.0, 1.6953717948771253E9, 0.0, 2023-09-22 10:36:34.877
81.0, 1198.366427226833, 187500.0, -187500.02235174447, -187500.02235174447, 187500.0, -187500.02235174447, -187500.02235174447, -187500.02235174447, 0.03, 0.05, 1.0, 192.0, 0.0, 0.0, 0.0, 0.0, 0.0, 0.0, 0.0, 0.0, 0.0, 1.695371794877165E9, 0.0, 2023-09-22 10:36:34.877
82.0, 4218.087103138817, 187500.0, -187500.02235174447, -187500.02235174447, 187500.0, -187500.02235174447, -187500.02235174447, -187500.02235174447, 0.03, 0.05, 1.0, 192.0, 0.0, 0.0, 0.0, 0.0, 0.0, 0.0, 0.0, 0.0, 0.0, 1.6953717948772037E9, 0.0, 2023-09-22 10:36:34.877
83.0, 6701.790595268082, 187500.0, -187500.02235174447, -187500.02235174447, 187500.0, -187500.02235174447, -187500.02235174447, -187500.02235174447, 0.03, 0.05, 1.0, 192.0, 0.0, 0.0, 0.0, 0.0, 0.0, 0.0, 0.0, 0.0, 0.0, 1.6953717948772435E9, 0.0, 2023-09-22 10:36:34.877
84.0, 8524.441245131642, 187500.0, -187500.02235174447, -187500.02235174447, 187500.0, -187500.02235174447, -187500.02235174447, -187500.02235174447, 0.03, 0.05, 1.0, 192.0, 0.0, 0.0, 0.0, 0.0, 0.0, 0.0, 0.0, 0.0, 0.0, 1.6953717948772836E9, 0.0, 2023-09-22 10:36:34.877
85.0, 7426.434150509138, 187500.0, -187500.02235174447, -187500.02235174447, 187500.0, -187500.02235174447, -187500.02235174447, -187500.02235174447, 0.03, 0.05, 1.0, 192.0, 0.0, 0.0, 0.0, 0.0, 0.0, 0.0, 0.0, 0.0, 0.0, 1.6953717948773232E9, 0.0, 2023-09-22 10:36:34.877
86.0, 4474.2157428521805, 187500.0, -187500.02235174447, -187500.02235174447, 187500.0, -187500.02235174447, -187500.02235174447, -187500.02235174447, 0.03, 0.05, 1.0, 192.0, 0.0, 0.0, 0.0, 0.0, 0.0, 0.0, 0.0, 0.0, 0.0, 1.6953717948773613E9, 0.0, 2023-09-22 10:36:34.877
87.0, 1984.9466663535436, 187500.0, -187500.02235174447, -187500.02235174447, 187500.0, -187500.02235174447, -187500.02235174447, -187500.02235174447, 0.03, 0.05, 1.0, 192.0, 0.0, 0.0, 0.0, 0.0, 0.0, 0.0, 0.0, 0.0, 0.0, 1.695371794877404E9, 0.0, 2023-09-22 10:36:34.877
88.0, 97.1630331472198, 187500.0, -187500.02235174447, -187500.02235174447, 187500.0, -187500.02235174447, -187500.02235174447, -187500.02235174447, 0.03, 0.05, 1.0, 192.0, 0.0, 0.0, 0.0, 0.0, 0.0, 0.0, 0.0, 0.0, 0.0, 1.6953717948774445E9, 0.0, 2023-09-22 10:36:34.877
89.0, 1167.9233512787046, 187500.0, -187500.02235174447, -187500.02235174447, 187500.0, -187500.02235174447, -187500.02235174447, -187500.02235174447, 0.03, 0.052000000000000005, 0.996, 192.0, 0.0, 240.0, 1.0, 160.0, 31.0, 32.0, 0.0, 0.0, 0.0, 1.6953717948774858E9, 0.0, 2023-09-22 10:36:34.877
90.0, 4170.187314771094, 187500.0, -187500.02235174447, -187500.02235174447, 187500.0, -187500.02235174447, -187500.02235174447, -187500.02235174447, 0.03, 0.052000000000000005, 0.996, 192.0, 0.0, 0.0, 0.0, 0.0, 0.0, 0.0, 0.0, 0.0, 0.0, 1.695371794877532E9, 0.0, 2023-09-22 10:36:34.877
91.0, 6718.71086582075, 187500.0, -187500.02235174447, -187500.02235174447, 187500.0, -187500.02235174447, -187500.02235174447, -187500.02235174447, 0.03, 0.052000000000000005, 0.996, 192.0, 0.0, 0.0, 0.0, 0.0, 0.0, 0.0, 0.0, 0.0, 0.0, 1.695371794877643E9, 0.0, 2023-09-22 10:36:34.877
92.0, 8625.046446924978, 187500.0, -187500.02235174447, -187500.02235174447, 187500.0, -187500.02235174447, -187500.02235174447, -187500.02235174447, 0.03, 0.052000000000000005, 0.996, 192.0, 0.0, 0.0, 0.0, 0.0, 0.0, 0.0, 0.0, 0.0, 0.0, 1.6953717948776865E9, 0.0, 2023-09-22 10:36:34.877
93.0, 7482.559380836414, 187500.0, -187500.02235174447, -187500.02235174447, 187500.0, -187500.02235174447, -187500.02235174447, -187500.02235174447, 0.03, 0.052000000000000005, 0.996, 192.0, 0.0, 0.0, 0.0, 0.0, 0.0, 0.0, 0.0, 0.0, 0.0, 1.695371794877727E9, 0.0, 2023-09-22 10:36:34.877
94.0, 4447.281890783535, 187500.0, -187500.02235174447, -187500.02235174447, 187500.0, -187500.02235174447, -187500.02235174447, -187500.02235174447, 0.03, 0.052000000000000005, 0.996, 192.0, 0.0, 0.0, 0.0, 0.0, 0.0, 0.0, 0.0, 0.0, 0.0, 1.6953717948777664E9, 0.0, 2023-09-22 10:36:34.877
95.0, 1942.8136280552899, 187500.0, -187500.02235174447, -187500.02235174447, 187500.0, -187500.02235174447, -187500.02235174447, -187500.02235174447, 0.03, 0.052000000000000005, 0.996, 192.0, 0.0, 0.0, 0.0, 0.0, 0.0, 0.0, 0.0, 0.0, 0.0, 1.6953717948778086E9, 0.0, 2023-09-22 10:36:34.877
96.0, 103.60033555034823, 187500.0, -187500.02235174447, -187500.02235174447, 187500.0, -187500.02235174447, -187500.02235174447, -187500.02235174447, 0.03, 0.052000000000000005, 0.996, 192.0, 0.0, 0.0, 0.0, 0.0, 0.0, 0.0, 0.0, 0.0, 0.0, 1.6953717948778489E9, 0.0, 2023-09-22 10:36:34.877
97.0, 1218.5724042144304, 187500.0, -187500.02235174447, -187500.02235174447, 187500.0, -187500.02235174447, -187500.02235174447, -187500.02235174447, 0.03, 0.052000000000000005, 0.996, 192.0, 0.0, 0.0, 0.0, 0.0, 0.0, 0.0, 0.0, 0.0, 0.0, 1.695371794877892E9, 0.0, 2023-09-22 10:36:34.877
98.0, 4166.387518213692, 187500.0, -187500.02235174447, -187500.02235174447, 187500.0, -187500.02235174447, -187500.02235174447, -187500.02235174447, 0.03, 0.052000000000000005, 0.996, 192.0, 0.0, 0.0, 0.0, 0.0, 0.0, 0.0, 0.0, 0.0, 0.0, 1.6953717948779392E9, 0.0, 2023-09-22 10:36:34.877
99.0, 6673.113307131924, 187500.0, -187500.02235174447, -187500.02235174447, 187500.0, -187500.02235174447, -187500.02235174447, -187500.02235174447, 0.032, 0.054, 0.992, 192.0, 1.0, 0.0, 1.0, 176.0, 31.0, 0.0, 0.0, 0.0, 0.0, 1.6953717948779829E9, 0.0, 2023-09-22 10:36:34.877
100.0, 8572.966882344113, 187500.0, -187500.02235174447, -187500.02235174447, 187500.0, -187500.02235174447, -187500.02235174447, -187500.02235174447, 0.032, 0.054, 0.992, 192.0, 0.0, 0.0, 0.0, 0.0, 0.0, 0.0, 0.0, 0.0, 0.0, 1.6953717948780243E9, 0.0, 2023-09-22 10:36:34.878
101.0, 7488.214372183606, 187500.0, -187500.02235174447, -187500.02235174447, 187500.0, -187500.02235174447, -187500.02235174447, -187500.02235174447, 0.032, 0.054, 0.992, 192.0, 0.0, 0.0, 0.0, 0.0, 0.0, 0.0, 0.0, 0.0, 0.0, 1.6953717948780653E9, 0.0, 2023-09-22 10:36:34.878
102.0, 4480.541286533033, 187500.0, -187500.02235174447, -187500.02235174447, 187500.0, -187500.02235174447, -187500.02235174447, -187500.02235174447, 0.032, 0.054, 0.992, 192.0, 0.0, 0.0, 0.0, 0.0, 0.0, 0.0, 0.0, 0.0, 0.0, 1.695371794878104E9, 0.0, 2023-09-22 10:36:34.878
103.0, 1931.324831405262, 187500.0, -187500.02235174447, -187500.02235174447, 187500.0, -187500.02235174447, -187500.02235174447, -187500.02235174447, 0.032, 0.054, 0.992, 192.0, 0.0, 0.0, 0.0, 0.0, 0.0, 0.0, 0.0, 0.0, 0.0, 1.695371794878146E9, 0.0, 2023-09-22 10:36:34.878
104.0, 26.442113690628254, 187500.0, -187500.02235174447, -187500.02235174447, 187500.0, -187500.02235174447, -187500.02235174447, -187500.02235174447, 0.032, 0.054, 0.992, 192.0, 0.0, 0.0, 0.0, 0.0, 0.0, 0.0, 0.0, 0.0, 0.0, 1.695371794878188E9, 0.0, 2023-09-22 10:36:34.878
105.0, 1145.7280690345847, 187500.0, -187500.02235174447, -187500.02235174447, 187500.0, -187500.02235174447, -187500.02235174447, -187500.02235174447, 0.032, 0.054, 0.992, 192.0, 0.0, 0.0, 0.0, 0.0, 0.0, 0.0, 0.0, 0.0, 0.0, 1.6953717953521757E9, 0.0, 2023-09-22 10:36:35.352
106.0, 4207.40296928918, 187500.0, -187500.02235174447, -187500.02235174447, 187500.0, -187500.02235174447, -187500.02235174447, -187500.02235174447, 0.032, 0.054, 0.992, 192.0, 0.0, 0.0, 0.0, 0.0, 0.0, 0.0, 0.0, 0.0, 0.0, 1.6953717953523245E9, 0.0, 2023-09-22 10:36:35.352
107.0, 6746.471732434241, 187500.0, -187500.02235174447, -187500.02235174447, 187500.0, -187500.02235174447, -187500.02235174447, -187500.02235174447, 0.032, 0.054, 0.992, 192.0, 0.0, 0.0, 0.0, 0.0, 0.0, 0.0, 0.0, 0.0, 0.0, 1.695371795352372E9, 0.0, 2023-09-22 10:36:35.352
108.0, 8580.097088825356, 187500.0, -187500.02235174447, -187500.02235174447, 187500.0, -187500.02235174447, -187500.02235174447, -187500.02235174447, 0.032, 0.054, 0.992, 192.0, 0.0, 0.0, 0.0, 0.0, 0.0, 0.0, 0.0, 0.0, 0.0, 1.6953717953524048E9, 0.0, 2023-09-22 10:36:35.352
109.0, 7433.7431709460225, 187500.0, -187500.02235174447, -187500.02235174447, 187500.0, -187500.02235174447, -187500.02235174447, -187500.02235174447, 0.026000000000000002, 0.054, 0.994, 192.0, 0.0, 208.0, 1.0, 176.0, 31.0, 16.0, 0.0, 0.0, 0.0, 1.6953717953524292E9, 0.0, 2023-09-22 10:36:35.352
110.0, 4423.611393405366, 187500.0, -187500.02235174447, -187500.02235174447, 187500.0, -187500.02235174447, -187500.02235174447, -187500.02235174447, 0.026000000000000002, 0.054, 0.994, 192.0, 0.0, 0.0, 0.0, 0.0, 0.0, 0.0, 0.0, 0.0, 0.0, 1.6953717953524556E9, 0.0, 2023-09-22 10:36:35.352
111.0, 1922.5405958343263, 187500.0, -187500.02235174447, -187500.02235174447, 187500.0, -187500.02235174447, -187500.02235174447, -187500.02235174447, 0.026000000000000002, 0.054, 0.994, 192.0, 0.0, 0.0, 0.0, 0.0, 0.0, 0.0, 0.0, 0.0, 0.0, 1.6953717953525016E9, 0.0, 2023-09-22 10:36:35.352
112.0, 78.43227129367249, 187500.0, -187500.02235174447, -187500.02235174447, 187500.0, -187500.02235174447, -187500.02235174447, -187500.02235174447, 0.026000000000000002, 0.054, 0.994, 192.0, 0.0, 0.0, 0.0, 0.0, 0.0, 0.0, 0.0, 0.0, 0.0, 1.695371795352537E9, 0.0, 2023-09-22 10:36:35.352
113.0, 1161.7319180645845, 187500.0, -187500.02235174447, -187500.02235174447, 187500.0, -187500.02235174447, -187500.02235174447, -187500.02235174447, 0.026000000000000002, 0.054, 0.994, 192.0, 0.0, 0.0, 0.0, 0.0, 0.0, 0.0, 0.0, 0.0, 0.0, 1.6953717953525617E9, 0.0, 2023-09-22 10:36:35.352
114.0, 4152.261215717937, 187500.0, -187500.02235174447, -187500.02235174447, 187500.0, -187500.02235174447, -187500.02235174447, -187500.02235174447, 0.026000000000000002, 0.054, 0.994, 192.0, 0.0, 0.0, 0.0, 0.0, 0.0, 0.0, 0.0, 0.0, 0.0, 1.695371795352586E9, 0.0, 2023-09-22 10:36:35.352
115.0, 6681.383452580387, 187500.0, -187500.02235174447, -187500.02235174447, 187500.0, -187500.02235174447, -187500.02235174447, -187500.02235174447, 0.026000000000000002, 0.054, 0.994, 192.0, 0.0, 0.0, 0.0, 0.0, 0.0, 0.0, 0.0, 0.0, 0.0, 1.6953717953526096E9, 0.0, 2023-09-22 10:36:35.352
116.0, 8585.707376683638, 187500.0, -187500.02235174447, -187500.02235174447, 187500.0, -187500.02235174447, -187500.02235174447, -187500.02235174447, 0.026000000000000002, 0.054, 0.994, 192.0, 0.0, 0.0, 0.0, 0.0, 0.0, 0.0, 0.0, 0.0, 0.0, 1.6953717953526337E9, 0.0, 2023-09-22 10:36:35.352
117.0, 7467.114325417796, 187500.0, -187500.02235174447, -187500.02235174447, 187500.0, -187500.02235174447, -187500.02235174447, -187500.02235174447, 0.026000000000000002, 0.054, 0.994, 192.0, 0.0, 0.0, 0.0, 0.0, 0.0, 0.0, 0.0, 0.0, 0.0, 1.6953717953526573E9, 0.0, 2023-09-22 10:36:35.352
118.0, 4441.917472114262, 187500.0, -187500.02235174447, -187500.02235174447, 187500.0, -187500.02235174447, -187500.02235174447, -187500.02235174447, 0.026000000000000002, 0.054, 0.994, 192.0, 0.0, 0.0, 0.0, 0.0, 0.0, 0.0, 0.0, 0.0, 0.0, 1.6953717953526807E9, 0.0, 2023-09-22 10:36:35.352
119.0, 1909.1519009055974, 187500.0, -187500.02235174447, -187500.02235174447, 187500.0, -187500.02235174447, -187500.02235174447, -187500.02235174447, 0.024, 0.058, 0.994, 192.0, 0.0, 192.0, 1.0, 208.0, 31.0, 16.0, 0.0, 0.0, 0.0, 1.6953717953527045E9, 0.0, 2023-09-22 10:36:35.352
120.0, 65.91529439870052, 187500.0, -187500.02235174447, -187500.02235174447, 187500.0, -187500.02235174447, -187500.02235174447, -187500.02235174447, 0.024, 0.058, 0.994, 192.0, 0.0, 0.0, 0.0, 0.0, 0.0, 0.0, 0.0, 0.0, 0.0, 1.6953717953527298E9, 0.0, 2023-09-22 10:36:35.352
121.0, 1185.0447875314699, 187500.0, -187500.02235174447, -187500.02235174447, 187500.0, -187500.02235174447, -187500.02235174447, -187500.02235174447, 0.024, 0.058, 0.994, 192.0, 0.0, 0.0, 0.0, 0.0, 0.0, 0.0, 0.0, 0.0, 0.0, 1.6953717953527904E9, 0.0, 2023-09-22 10:36:35.352
122.0, 4201.770329686443, 187500.0, -187500.02235174447, -187500.02235174447, 187500.0, -187500.02235174447, -187500.02235174447, -187500.02235174447, 0.024, 0.058, 0.994, 192.0, 0.0, 0.0, 0.0, 0.0, 0.0, 0.0, 0.0, 0.0, 0.0, 1.695371795352816E9, 0.0, 2023-09-22 10:36:35.352
123.0, 6725.908127535359, 187500.0, -187500.02235174447, -187500.02235174447, 187500.0, -187500.02235174447, -187500.02235174447, -187500.02235174447, 0.024, 0.058, 0.994, 192.0, 0.0, 0.0, 0.0, 0.0, 0.0, 0.0, 0.0, 0.0, 0.0, 1.69537179535284E9, 0.0, 2023-09-22 10:36:35.352
124.0, 8571.849295121348, 187500.0, -187500.02235174447, -187500.02235174447, 187500.0, -187500.02235174447, -187500.02235174447, -187500.02235174447, 0.024, 0.058, 0.994, 192.0, 0.0, 0.0, 0.0, 0.0, 0.0, 0.0, 0.0, 0.0, 0.0, 1.695371795352864E9, 0.0, 2023-09-22 10:36:35.352
125.0, 7488.750814050533, 187500.0, -187500.02235174447, -187500.02235174447, 187500.0, -187500.02235174447, -187500.02235174447, -187500.02235174447, 0.024, 0.058, 0.994, 192.0, 0.0, 0.0, 0.0, 0.0, 0.0, 0.0, 0.0, 0.0, 0.0, 1.695371795352894E9, 0.0, 2023-09-22 10:36:35.352
126.0, 4515.342952649946, 187500.0, -187500.02235174447, -187500.02235174447, 187500.0, -187500.02235174447, -187500.02235174447, -187500.02235174447, 0.024, 0.058, 0.994, 192.0, 0.0, 0.0, 0.0, 0.0, 0.0, 0.0, 0.0, 0.0, 0.0, 1.6953717953529282E9, 0.0, 2023-09-22 10:36:35.352
127.0, 1993.9991228579431, 187500.0, -187500.02235174447, -187500.02235174447, 187500.0, -187500.02235174447, -187500.02235174447, -187500.02235174447, 0.024, 0.058, 0.994, 192.0, 0.0, 0.0, 0.0, 0.0, 0.0, 0.0, 0.0, 0.0, 0.0, 1.6953717953529527E9, 0.0, 2023-09-22 10:36:35.352
128.0, 85.31660858590706, 187500.0, -187500.02235174447, -187500.02235174447, 187500.0, -187500.02235174447, -187500.02235174447, -187500.02235174447, 0.024, 0.058, 0.994, 192.0, 0.0, 0.0, 0.0, 0.0, 0.0, 0.0, 0.0, 0.0, 0.0, 1.695371795352976E9, 0.0, 2023-09-22 10:36:35.352
129.0, 1152.8582755158277, 187500.0, -187500.02235174447, -187500.02235174447, 187500.0, -187500.02235174447, -187500.02235174447, -187500.02235174447, 0.022, 0.054, 0.994, 192.0, 0.0, 176.0, 1.0, 176.0, 31.0, 16.0, 0.0, 0.0, 0.0, 1.6953717953530047E9, 0.0, 2023-09-22 10:36:35.353
130.0, 4179.865620120242, 187500.0, -187500.02235174447, -187500.02235174447, 187500.0, -187500.02235174447, -187500.02235174447, -187500.02235174447, 0.022, 0.054, 0.994, 192.0, 0.0, 0.0, 0.0, 0.0, 0.0, 0.0, 0.0, 0.0, 0.0, 1.6953717953530395E9, 0.0, 2023-09-22 10:36:35.353
131.0, 6766.320081510554, 187500.0, -187500.02235174447, -187500.02235174447, 187500.0, -187500.02235174447, -187500.02235174447, -187500.02235174447, 0.022, 0.054, 0.994, 192.0, 0.0, 0.0, 0.0, 0.0, 0.0, 0.0, 0.0, 0.0, 0.0, 1.6953717953530636E9, 0.0, 2023-09-22 10:36:35.353
132.0, 8646.749990791082, 187500.0, -187500.02235174447, -187500.02235174447, 187500.0, -187500.02235174447, -187500.02235174447, -187500.02235174447, 0.022, 0.054, 0.994, 192.0, 0.0, 0.0, 0.0, 0.0, 0.0, 0.0, 0.0, 0.0, 0.0, 1.695371795353096E9, 0.0, 2023-09-22 10:36:35.353
133.0, 7486.582694838369, 187500.0, -187500.02235174447, -187500.02235174447, 187500.0, -187500.02235174447, -187500.02235174447, -187500.02235174447, 0.022, 0.054, 0.994, 192.0, 0.0, 0.0, 0.0, 0.0, 0.0, 0.0, 0.0, 0.0, 0.0, 1.6953717953531203E9, 0.0, 2023-09-22 10:36:35.353
134.0, 4434.831969121929, 187500.0, -187500.02235174447, -187500.02235174447, 187500.0, -187500.02235174447, -187500.02235174447, -187500.02235174447, 0.022, 0.054, 0.994, 192.0, 0.0, 0.0, 0.0, 0.0, 0.0, 0.0, 0.0, 0.0, 0.0, 1.6953717953531475E9, 0.0, 2023-09-22 10:36:35.353
135.0, 1918.3384678767286, 187500.0, -187500.02235174447, -187500.02235174447, 187500.0, -187500.02235174447, -187500.02235174447, -187500.02235174447, 0.022, 0.054, 0.994, 192.0, 0.0, 0.0, 0.0, 0.0, 0.0, 0.0, 0.0, 0.0, 0.0, 1.69537179535318E9, 0.0, 2023-09-22 10:36:35.353
136.0, 86.3671405753065, 187500.0, -187500.02235174447, -187500.02235174447, 187500.0, -187500.02235174447, -187500.02235174447, -187500.02235174447, 0.022, 0.054, 0.994, 192.0, 0.0, 0.0, 0.0, 0.0, 0.0, 0.0, 0.0, 0.0, 0.0, 1.6953717953532352E9, 0.0, 2023-09-22 10:36:35.353
137.0, 1189.9174678227268, 187500.0, -187500.02235174447, -187500.02235174447, 187500.0, -187500.02235174447, -187500.02235174447, -187500.02235174447, 0.022, 0.054, 0.994, 192.0, 0.0, 0.0, 0.0, 0.0, 0.0, 0.0, 0.0, 0.0, 0.0, 1.6953717953532596E9, 0.0, 2023-09-22 10:36:35.353
138.0, 4176.803431129865, 187500.0, -187500.02235174447, -187500.02235174447, 187500.0, -187500.02235174447, -187500.02235174447, -187500.02235174447, 0.022, 0.054, 0.994, 192.0, 0.0, 0.0, 0.0, 0.0, 0.0, 0.0, 0.0, 0.0, 0.0, 1.6953717953532834E9, 0.0, 2023-09-22 10:36:35.353
139.0, 6668.642958240862, 187500.0, -187500.02235174447, -187500.02235174447, 187500.0, -187500.02235174447, -187500.02235174447, -187500.02235174447, 0.028, 0.05, 0.998, 192.0, 0.0, 224.0, 1.0, 144.0, 31.0, 48.0, 0.0, 0.0, 0.0, 1.6953717953533072E9, 0.0, 2023-09-22 10:36:35.353
140.0, 8543.529634896473, 187500.0, -187500.02235174447, -187500.02235174447, 187500.0, -187500.02235174447, -187500.02235174447, -187500.02235174447, 0.028, 0.05, 0.998, 192.0, 0.0, 0.0, 0.0, 0.0, 0.0, 0.0, 0.0, 0.0, 0.0, 1.6953717953533328E9, 0.0, 2023-09-22 10:36:35.353
141.0, 7436.693601214123, 187500.0, -187500.02235174447, -187500.02235174447, 187500.0, -187500.02235174447, -187500.02235174447, -187500.02235174447, 0.028, 0.05, 0.998, 192.0, 0.0, 0.0, 0.0, 0.0, 0.0, 0.0, 0.0, 0.0, 0.0, 1.6953717953533564E9, 0.0, 2023-09-22 10:36:35.353
142.0, 4479.60251326591, 187500.0, -187500.02235174447, -187500.02235174447, 187500.0, -187500.02235174447, -187500.02235174447, -187500.02235174447, 0.028, 0.05, 0.998, 192.0, 0.0, 0.0, 0.0, 0.0, 0.0, 0.0, 0.0, 0.0, 0.0, 1.69537179535338E9, 0.0, 2023-09-22 10:36:35.353
143.0, 1950.8379043147452, 187500.0, -187500.02235174447, -187500.02235174447, 187500.0, -187500.02235174447, -187500.02235174447, -187500.02235174447, 0.028, 0.05, 0.998, 192.0, 0.0, 0.0, 0.0, 0.0, 0.0, 0.0, 0.0, 0.0, 0.0, 1.6953717953534036E9, 0.0, 2023-09-22 10:36:35.353
144.0, 23.983421800544477, 187500.0, -187500.02235174447, -187500.02235174447, 187500.0, -187500.02235174447, -187500.02235174447, -187500.02235174447, 0.028, 0.05, 0.998, 192.0, 0.0, 0.0, 0.0, 0.0, 0.0, 0.0, 0.0, 0.0, 0.0, 1.6953717953534272E9, 0.0, 2023-09-22 10:36:35.353
145.0, 1115.7096762311073, 187500.0, -187500.02235174447, -187500.02235174447, 187500.0, -187500.02235174447, -187500.02235174447, -187500.02235174447, 0.028, 0.05, 0.998, 192.0, 0.0, 0.0, 0.0, 0.0, 0.0, 0.0, 0.0, 0.0, 0.0, 1.6953717953534508E9, 0.0, 2023-09-22 10:36:35.353
146.0, 4164.197047257072, 187500.0, -187500.02235174447, -187500.02235174447, 187500.0, -187500.02235174447, -187500.02235174447, -187500.02235174447, 0.028, 0.05, 0.998, 192.0, 0.0, 0.0, 0.0, 0.0, 0.0, 0.0, 0.0, 0.0, 0.0, 1.69537179535349E9, 0.0, 2023-09-22 10:36:35.353
147.0, 6724.90229903487, 187500.0, -187500.02235174447, -187500.02235174447, 187500.0, -187500.02235174447, -187500.02235174447, -187500.02235174447, 0.028, 0.05, 0.998, 192.0, 0.0, 0.0, 0.0, 0.0, 0.0, 0.0, 0.0, 0.0, 0.0, 1.6953717953535335E9, 0.0, 2023-09-22 10:36:35.353
148.0, 8583.494553982562, 187500.0, -187500.02235174447, -187500.02235174447, 187500.0, -187500.02235174447, -187500.02235174447, -187500.02235174447, 0.028, 0.05, 0.998, 192.0, 0.0, 0.0, 0.0, 0.0, 0.0, 0.0, 0.0, 0.0, 0.0, 1.6953717953535717E9, 0.0, 2023-09-22 10:36:35.353
149.0, 7436.872415169766, 187500.0, -187500.02235174447, -187500.02235174447, 187500.0, -187500.02235174447, -187500.02235174447, -187500.02235174447, 0.018000000000000002, 0.048, 1.0, 192.0, 0.0, 144.0, 1.0, 128.0, 31.0, 64.0, 0.0, 0.0, 0.0, 1.6953717953536077E9, 0.0, 2023-09-22 10:36:35.353
150.0, 4413.9330880562175, 187500.0, -187500.02235174447, -187500.02235174447, 187500.0, -187500.02235174447, -187500.02235174447, -187500.02235174447, 0.018000000000000002, 0.048, 1.0, 192.0, 0.0, 0.0, 0.0, 0.0, 0.0, 0.0, 0.0, 0.0, 0.0, 1.695371795353644E9, 0.0, 2023-09-22 10:36:35.353
151.0, 1957.5657793957926, 187500.0, -187500.02235174447, -187500.02235174447, 187500.0, -187500.02235174447, -187500.02235174447, -187500.02235174447, 0.018000000000000002, 0.048, 1.0, 192.0, 0.0, 0.0, 0.0, 0.0, 0.0, 0.0, 0.0, 0.0, 0.0, 1.6953717953537326E9, 0.0, 2023-09-22 10:36:35.353
152.0, 130.7130015746357, 187500.0, -187500.02235174447, -187500.02235174447, 187500.0, -187500.02235174447, -187500.02235174447, -187500.02235174447, 0.018000000000000002, 0.048, 1.0, 192.0, 0.0, 0.0, 0.0, 0.0, 0.0, 0.0, 0.0, 0.0, 0.0, 1.6953717953537729E9, 0.0, 2023-09-22 10:36:35.353
153.0, 1204.066122062936, 187500.0, -187500.02235174447, -187500.02235174447, 187500.0, -187500.02235174447, -187500.02235174447, -187500.02235174447, 0.018000000000000002, 0.048, 1.0, 192.0, 0.0, 0.0, 0.0, 0.0, 0.0, 0.0, 0.0, 0.0, 0.0, 1.6953717953538115E9, 0.0, 2023-09-22 10:36:35.353
154.0, 4185.341797511792, 187500.0, -187500.02235174447, -187500.02235174447, 187500.0, -187500.02235174447, -187500.02235174447, -187500.02235174447, 0.018000000000000002, 0.048, 1.0, 192.0, 0.0, 0.0, 0.0, 0.0, 0.0, 0.0, 0.0, 0.0, 0.0, 1.6953717953538496E9, 0.0, 2023-09-22 10:36:35.353
155.0, 6708.943153493781, 187500.0, -187500.02235174447, -187500.02235174447, 187500.0, -187500.02235174447, -187500.02235174447, -187500.02235174447, 0.018000000000000002, 0.048, 1.0, 192.0, 0.0, 0.0, 0.0, 0.0, 0.0, 0.0, 0.0, 0.0, 0.0, 1.69537179535389E9, 0.0, 2023-09-22 10:36:35.353
156.0, 8613.021208408023, 187500.0, -187500.02235174447, -187500.02235174447, 187500.0, -187500.02235174447, -187500.02235174447, -187500.02235174447, 0.018000000000000002, 0.048, 1.0, 192.0, 0.0, 0.0, 0.0, 0.0, 0.0, 0.0, 0.0, 0.0, 0.0, 1.695371795353929E9, 0.0, 2023-09-22 10:36:35.353
157.0, 7512.845994573355, 187500.0, -187500.02235174447, -187500.02235174447, 187500.0, -187500.02235174447, -187500.02235174447, -187500.02235174447, 0.018000000000000002, 0.048, 1.0, 192.0, 0.0, 0.0, 0.0, 0.0, 0.0, 0.0, 0.0, 0.0, 0.0, 1.695371795353969E9, 0.0, 2023-09-22 10:36:35.353
158.0, 4463.956292147194, 187500.0, -187500.02235174447, -187500.02235174447, 187500.0, -187500.02235174447, -187500.02235174447, -187500.02235174447, 0.018000000000000002, 0.048, 1.0, 192.0, 0.0, 0.0, 0.0, 0.0, 0.0, 0.0, 0.0, 0.0, 0.0, 1.6953717953540075E9, 0.0, 2023-09-22 10:36:35.354
159.0, 1890.0858628852204, 187500.0, -187500.02235174447, -187500.02235174447, 187500.0, -187500.02235174447, -187500.02235174447, -187500.02235174447, 0.022, 0.05, 1.0, 192.0, 0.0, 176.0, 1.0, 144.0, 31.0, 64.0, 0.0, 0.0, 0.0, 1.6953717953540473E9, 0.0, 2023-09-22 10:36:35.354
160.0, 33.505264938505285, 187500.0, -187500.02235174447, -187500.02235174447, 187500.0, -187500.02235174447, -187500.02235174447, -187500.02235174447, 0.022, 0.05, 1.0, 192.0, 0.0, 0.0, 0.0, 0.0, 0.0, 0.0, 0.0, 0.0, 0.0, 1.69537179535409E9, 0.0, 2023-09-22 10:36:35.354
161.0, 1198.7911103714837, 187500.0, -187500.02235174447, -187500.02235174447, 187500.0, -187500.02235174447, -187500.02235174447, -187500.02235174447, 0.022, 0.05, 1.0, 192.0, 0.0, 0.0, 0.0, 0.0, 0.0, 0.0, 0.0, 0.0, 0.0, 1.695371795354115E9, 0.0, 2023-09-22 10:36:35.354
162.0, 4243.456333095591, 187500.0, -187500.02235174447, -187500.02235174447, 187500.0, -187500.02235174447, -187500.02235174447, -187500.02235174447, 0.022, 0.05, 1.0, 192.0, 0.0, 0.0, 0.0, 0.0, 0.0, 0.0, 0.0, 0.0, 0.0, 1.6953717953541389E9, 0.0, 2023-09-22 10:36:35.354
163.0, 6765.224846032244, 187500.0, -187500.02235174447, -187500.02235174447, 187500.0, -187500.02235174447, -187500.02235174447, -187500.02235174447, 0.022, 0.05, 1.0, 192.0, 0.0, 0.0, 0.0, 0.0, 0.0, 0.0, 0.0, 0.0, 0.0, 1.6953717953541625E9, 0.0, 2023-09-22 10:36:35.354
164.0, 8573.324510255397, 187500.0, -187500.02235174447, -187500.02235174447, 187500.0, -187500.02235174447, -187500.02235174447, -187500.02235174447, 0.022, 0.05, 1.0, 192.0, 0.0, 0.0, 0.0, 0.0, 0.0, 0.0, 0.0, 0.0, 0.0, 1.6953717953541858E9, 0.0, 2023-09-22 10:36:35.354
165.0, 7448.182397864151, 187500.0, -187500.02235174447, -187500.02235174447, 187500.0, -187500.02235174447, -187500.02235174447, -187500.02235174447, 0.022, 0.05, 1.0, 192.0, 0.0, 0.0, 0.0, 0.0, 0.0, 0.0, 0.0, 0.0, 0.0, 1.6953717953542092E9, 0.0, 2023-09-22 10:36:35.354
166.0, 4472.3381963179345, 187500.0, -187500.02235174447, -187500.02235174447, 187500.0, -187500.02235174447, -187500.02235174447, -187500.02235174447, 0.022, 0.05, 1.0, 192.0, 0.0, 0.0, 0.0, 0.0, 0.0, 0.0, 0.0, 0.0, 0.0, 1.6953717953542333E9, 0.0, 2023-09-22 10:36:35.354
167.0, 1936.130456463153, 187500.0, -187500.02235174447, -187500.02235174447, 187500.0, -187500.02235174447, -187500.02235174447, -187500.02235174447, 0.022, 0.05, 1.0, 192.0, 0.0, 0.0, 0.0, 0.0, 0.0, 0.0, 0.0, 0.0, 0.0, 1.6953717953542955E9, 0.0, 2023-09-22 10:36:35.354
168.0, 41.082506308854384, 187500.0, -187500.02235174447, -187500.02235174447, 187500.0, -187500.02235174447, -187500.02235174447, -187500.02235174447, 0.022, 0.05, 1.0, 192.0, 0.0, 0.0, 0.0, 0.0, 0.0, 0.0, 0.0, 0.0, 0.0, 1.69537179535432E9, 0.0, 2023-09-22 10:36:35.354
169.0, 1108.4006557942218, 187500.0, -187500.02235174447, -187500.02235174447, 187500.0, -187500.02235174447, -187500.02235174447, -187500.02235174447, 0.022, 0.046, 0.998, 192.0, 0.0, 176.0, 1.0, 112.0, 31.0, 48.0, 0.0, 0.0, 0.0, 1.6953717953543437E9, 0.0, 2023-09-22 10:36:35.354
170.0, 4150.853055817253, 187500.0, -187500.02235174447, -187500.02235174447, 187500.0, -187500.02235174447, -187500.02235174447, -187500.02235174447, 0.022, 0.046, 0.998, 192.0, 0.0, 0.0, 0.0, 0.0, 0.0, 0.0, 0.0, 0.0, 0.0, 1.6953717953543684E9, 0.0, 2023-09-22 10:36:35.354
171.0, 6733.373610183431, 187500.0, -187500.02235174447, -187500.02235174447, 187500.0, -187500.02235174447, -187500.02235174447, -187500.02235174447, 0.022, 0.046, 0.998, 192.0, 0.0, 0.0, 0.0, 0.0, 0.0, 0.0, 0.0, 0.0, 0.0, 1.6953717953543932E9, 0.0, 2023-09-22 10:36:35.354
