%OpenBCI Raw EXG Data
%Number of channels = 8
%Sample Rate = 250 Hz
%Board = OpenBCI_GUI$BoardCytonSerial
Sample Index, EXG Channel 0, EXG Channel 1, EXG Channel 2, EXG Channel 3, EXG Channel 4, EXG Channel 5, EXG Channel 6, EXG Channel 7, Accel Channel 0, Accel Channel 1, Accel Channel 2, Other, Other, Other, Other, Other, Other, Other, Analog Channel 0, Analog Channel 1, Analog Channel 2, Timestamp, Other, Timestamp (Formatted)
0.0, 3336.5343018215067, 187500.0, 187500.0, 187500.0, 187500.0, 187500.0, 187500.0, 187500.0, 0.02, 0.082, 0.492, 192.0, 0.0, 160.0, 2.0, 144.0, 15.0, 96.0, 0.0, 0.0, 0.0, 1.6953697621122208E9, 0.0, 2023-09-22 10:02:42.112
1.0, 3354.393345641297, 187500.0, 187500.0, 187500.0, 187500.0, 187500.0, 187500.0, 187500.0, 0.02, 0.082, 0.492, 192.0, 0.0, 0.0, 0.0, 0.0, 0.0, 0.0, 0.0, 0.0, 0.0, 1.695369762592244E9, 0.0, 2023-09-22 10:02:42.592
2.0, 3362.99876725659, 187500.0, 187500.0, 187500.0, 187500.0, 187500.0, 187500.0, 187500.0, 0.02, 0.082, 0.492, 192.0, 0.0, 0.0, 0.0, 0.0, 0.0, 0.0, 0.0, 0.0, 0.0, 1.6953697625922897E9, 0.0, 2023-09-22 10:02:42.592
3.0, 3360.8529997888804, 187500.0, 187500.0, 187500.0, 187500.0, 187500.0, 187500.0, 187500.0, 0.02, 0.082, 0.492, 192.0, 0.0, 0.0, 0.0, 0.0, 0.0, 0.0, 0.0, 0.0, 0.0, 1.6953697625923169E9, 0.0, 2023-09-22 10:02:42.592
4.0, 3325.8278162274146, 187500.0, 187500.0, 187500.0, 187500.0, 187500.0, 187500.0, 187500.0, 0.02, 0.082, 0.492, 192.0, 0.0, 0.0, 0.0, 0.0, 0.0, 0.0, 0.0, 0.0, 0.0, 1.69536976259234E9, 0.0, 2023-09-22 10:02:42.592
5.0, 3307.6334962407946, 187500.0, 187500.0, 187500.0, 187500.0, 187500.0, 187500.0, 187500.0, 0.02, 0.082, 0.492, 192.0, 0.0, 0.0, 0.0, 0.0, 0.0, 0.0, 0.0, 0.0, 0.0, 1.6953697625923624E9, 0.0, 2023-09-22 10:02:42.592
6.0, 3298.134004847289, 187500.0, 187500.0, 187500.0, 187500.0, 187500.0, 187500.0, 187500.0, 0.02, 0.082, 0.492, 192.0, 0.0, 0.0, 0.0, 0.0, 0.0, 0.0, 0.0, 0.0, 0.0, 1.6953697625924182E9, 0.0, 2023-09-22 10:02:42.592
7.0, 3298.6704467142163, 187500.0, 187500.0, 187500.0, 187500.0, 187500.0, 187500.0, 187500.0, 0.026000000000000002, 0.122, 0.74, 192.0, 0.0, 208.0, 3.0, 208.0, 23.0, 32.0, 0.0, 0.0, 0.0, 1.695369762592446E9, 0.0, 2023-09-22 10:02:42.592
8.0, 3332.198063397177, 187500.0, 187500.0, 187500.0, 187500.0, 187500.0, 187500.0, 187500.0, 0.026000000000000002, 0.122, 0.74, 192.0, 0.0, 0.0, 0.0, 0.0, 0.0, 0.0, 0.0, 0.0, 0.0, 1.6953697625924687E9, 0.0, 2023-09-22 10:02:42.592
9.0, 3349.6994793056824, 187500.0, 187500.0, 187500.0, 187500.0, 187500.0, 187500.0, 187500.0, 0.026000000000000002, 0.122, 0.74, 192.0, 0.0, 0.0, 0.0, 0.0, 0.0, 0.0, 0.0, 0.0, 0.0, 1.6953697625924904E9, 0.0, 2023-09-22 10:02:42.592
10.0, 3358.9531015101793, 187500.0, 187500.0, 187500.0, 187500.0, 187500.0, 187500.0, 187500.0, 0.026000000000000002, 0.122, 0.74, 192.0, 0.0, 0.0, 0.0, 0.0, 0.0, 0.0, 0.0, 0.0, 0.0, 1.6953697625925107E9, 0.0, 2023-09-22 10:02:42.592
11.0, 3358.61782534335, 187500.0, 187500.0, 187500.0, 187500.0, 187500.0, 187500.0, 187500.0, 0.026000000000000002, 0.122, 0.74, 192.0, 0.0, 0.0, 0.0, 0.0, 0.0, 0.0, 0.0, 0.0, 0.0, 1.6953697625925307E9, 0.0, 2023-09-22 10:02:42.592
12.0, 3324.4420080711852, 187500.0, 187500.0, 187500.0, 187500.0, 187500.0, 187500.0, 187500.0, 0.026000000000000002, 0.122, 0.74, 192.0, 0.0, 0.0, 0.0, 0.0, 0.0, 0.0, 0.0, 0.0, 0.0, 1.6953697625925508E9, 0.0, 2023-09-22 10:02:42.592
13.0, 3305.0853973728895, 187500.0, 187500.0, 187500.0, 187500.0, 187500.0, 187500.0, 187500.0, 0.026000000000000002, 0.122, 0.74, 192.0, 0.0, 0.0, 0.0, 0.0, 0.0, 0.0, 0.0, 0.0, 0.0, 1.6953697625925703E9, 0.0, 2023-09-22 10:02:42.592
14.0, 3295.451795512652, 187500.0, 187500.0, 187500.0, 187500.0, 187500.0, 187500.0, 187500.0, 0.026000000000000002, 0.122, 0.74, 192.0, 0.0, 0.0, 0.0, 0.0, 0.0, 0.0, 0.0, 0.0, 0.0, 1.6953697625925906E9, 0.0, 2023-09-22 10:02:42.592
15.0, 3296.167051335222, 187500.0, 187500.0, 187500.0, 187500.0, 187500.0, 187500.0, 187500.0, 0.026000000000000002, 0.122, 0.74, 192.0, 0.0, 0.0, 0.0, 0.0, 0.0, 0.0, 0.0, 0.0, 0.0, 1.6953697625926137E9, 0.0, 2023-09-22 10:02:42.592
16.0, 3330.5216825630287, 187500.0, 187500.0, 187500.0, 187500.0, 187500.0, 187500.0, 187500.0, 0.036000000000000004, 0.14400000000000002, 0.862, 192.0, 1.0, 32.0, 4.0, 128.0, 26.0, 240.0, 0.0, 0.0, 0.0, 1.695369762592638E9, 0.0, 2023-09-22 10:02:42.592
17.0, 3349.252444416576, 187500.0, 187500.0, 187500.0, 187500.0, 187500.0, 187500.0, 187500.0, 0.036000000000000004, 0.14400000000000002, 0.862, 192.0, 0.0, 0.0, 0.0, 0.0, 0.0, 0.0, 0.0, 0.0, 0.0, 1.6953697625926695E9, 0.0, 2023-09-22 10:02:42.592
18.0, 3357.991976498601, 187500.0, 187500.0, 187500.0, 187500.0, 187500.0, 187500.0, 187500.0, 0.036000000000000004, 0.14400000000000002, 0.862, 192.0, 0.0, 0.0, 0.0, 0.0, 0.0, 0.0, 0.0, 0.0, 0.0, 1.6953697625927956E9, 0.0, 2023-09-22 10:02:42.592
19.0, 3356.740278809104, 187500.0, 187500.0, 187500.0, 187500.0, 187500.0, 187500.0, 187500.0, 0.036000000000000004, 0.14400000000000002, 0.862, 192.0, 0.0, 0.0, 0.0, 0.0, 0.0, 0.0, 0.0, 0.0, 0.0, 1.6953697625928223E9, 0.0, 2023-09-22 10:02:42.592
20.0, 3323.5032348040622, 187500.0, 187500.0, 187500.0, 187500.0, 187500.0, 187500.0, 187500.0, 0.036000000000000004, 0.14400000000000002, 0.862, 192.0, 0.0, 0.0, 0.0, 0.0, 0.0, 0.0, 0.0, 0.0, 0.0, 1.6953697625928469E9, 0.0, 2023-09-22 10:02:42.592
21.0, 3304.9512869061577, 187500.0, 187500.0, 187500.0, 187500.0, 187500.0, 187500.0, 187500.0, 0.036000000000000004, 0.14400000000000002, 0.862, 192.0, 0.0, 0.0, 0.0, 0.0, 0.0, 0.0, 0.0, 0.0, 0.0, 1.6953697625928698E9, 0.0, 2023-09-22 10:02:42.592
22.0, 3295.451795512652, 187500.0, 187500.0, 187500.0, 187500.0, 187500.0, 187500.0, 187500.0, 0.036000000000000004, 0.14400000000000002, 0.862, 192.0, 0.0, 0.0, 0.0, 0.0, 0.0, 0.0, 0.0, 0.0, 0.0, 1.6953697625928924E9, 0.0, 2023-09-22 10:02:42.592
23.0, 3295.496499001563, 187500.0, 187500.0, 187500.0, 187500.0, 187500.0, 187500.0, 187500.0, 0.036000000000000004, 0.14400000000000002, 0.862, 192.0, 0.0, 0.0, 0.0, 0.0, 0.0, 0.0, 0.0, 0.0, 0.0, 1.695369762592927E9, 0.0, 2023-09-22 10:02:42.592
24.0, 3329.091170917889, 187500.0, 187500.0, 187500.0, 187500.0, 187500.0, 187500.0, 187500.0, 0.036000000000000004, 0.14400000000000002, 0.862, 192.0, 0.0, 0.0, 0.0, 0.0, 0.0, 0.0, 0.0, 0.0, 0.0, 1.6953697625929496E9, 0.0, 2023-09-22 10:02:42.592
25.0, 3348.3136711494535, 187500.0, 187500.0, 187500.0, 187500.0, 187500.0, 187500.0, 187500.0, 0.036000000000000004, 0.14400000000000002, 0.862, 192.0, 0.0, 0.0, 0.0, 0.0, 0.0, 0.0, 0.0, 0.0, 0.0, 1.6953697625929728E9, 0.0, 2023-09-22 10:02:42.592
26.0, 3358.550770109984, 187500.0, 187500.0, 187500.0, 187500.0, 187500.0, 187500.0, 187500.0, 0.038, 0.152, 0.926, 192.0, 1.0, 48.0, 4.0, 192.0, 28.0, 240.0, 0.0, 0.0, 0.0, 1.695369762592998E9, 0.0, 2023-09-22 10:02:42.592
27.0, 3356.9861479981123, 187500.0, 187500.0, 187500.0, 187500.0, 187500.0, 187500.0, 187500.0, 0.038, 0.152, 0.926, 192.0, 0.0, 0.0, 0.0, 0.0, 0.0, 0.0, 0.0, 0.0, 0.0, 1.695369762593022E9, 0.0, 2023-09-22 10:02:42.593
28.0, 3322.7656272370373, 187500.0, 187500.0, 187500.0, 187500.0, 187500.0, 187500.0, 187500.0, 0.038, 0.152, 0.926, 192.0, 0.0, 0.0, 0.0, 0.0, 0.0, 0.0, 0.0, 0.0, 0.0, 1.695369762593043E9, 0.0, 2023-09-22 10:02:42.593
29.0, 3303.5431270054733, 187500.0, 187500.0, 187500.0, 187500.0, 187500.0, 187500.0, 187500.0, 0.038, 0.152, 0.926, 192.0, 0.0, 0.0, 0.0, 0.0, 0.0, 0.0, 0.0, 0.0, 0.0, 1.6953697625930672E9, 0.0, 2023-09-22 10:02:42.593
30.0, 3294.6694844567164, 187500.0, 187500.0, 187500.0, 187500.0, 187500.0, 187500.0, 187500.0, 0.038, 0.152, 0.926, 192.0, 0.0, 0.0, 0.0, 0.0, 0.0, 0.0, 0.0, 0.0, 0.0, 1.6953697625930893E9, 0.0, 2023-09-22 10:02:42.593
31.0, 3295.787071679482, 187500.0, 187500.0, 187500.0, 187500.0, 187500.0, 187500.0, 187500.0, 0.038, 0.152, 0.926, 192.0, 0.0, 0.0, 0.0, 0.0, 0.0, 0.0, 0.0, 0.0, 0.0, 1.6953697625931115E9, 0.0, 2023-09-22 10:02:42.593
32.0, 3329.717019762638, 187500.0, 187500.0, 187500.0, 187500.0, 187500.0, 187500.0, 187500.0, 0.038, 0.152, 0.926, 192.0, 0.0, 0.0, 0.0, 0.0, 0.0, 0.0, 0.0, 0.0, 0.0, 1.695369762593134E9, 0.0, 2023-09-22 10:02:42.593
33.0, 3348.0454502159896, 187500.0, 187500.0, 187500.0, 187500.0, 187500.0, 187500.0, 187500.0, 0.038, 0.152, 0.926, 192.0, 0.0, 0.0, 0.0, 0.0, 0.0, 0.0, 0.0, 0.0, 0.0, 1.695369762593158E9, 0.0, 2023-09-22 10:02:42.593
34.0, 3357.2320171871206, 187500.0, 187500.0, 187500.0, 187500.0, 187500.0, 187500.0, 187500.0, 0.038, 0.152, 0.926, 192.0, 0.0, 0.0, 0.0, 0.0, 0.0, 0.0, 0.0, 0.0, 0.0, 1.6953697625931811E9, 0.0, 2023-09-22 10:02:42.593
35.0, 3356.0920782199, 187500.0, 187500.0, 187500.0, 187500.0, 187500.0, 187500.0, 187500.0, 0.038, 0.152, 0.926, 192.0, 0.0, 0.0, 0.0, 0.0, 0.0, 0.0, 0.0, 0.0, 0.0, 1.6953697625932016E9, 0.0, 2023-09-22 10:02:42.593
36.0, 3322.7879789814924, 187500.0, 187500.0, 187500.0, 187500.0, 187500.0, 187500.0, 187500.0, 0.038, 0.158, 0.962, 192.0, 1.0, 48.0, 4.0, 240.0, 30.0, 16.0, 0.0, 0.0, 0.0, 1.6953697625932212E9, 0.0, 2023-09-22 10:02:42.593
37.0, 3304.3477898058645, 187500.0, 187500.0, 187500.0, 187500.0, 187500.0, 187500.0, 187500.0, 0.038, 0.158, 0.962, 192.0, 0.0, 0.0, 0.0, 0.0, 0.0, 0.0, 0.0, 0.0, 0.0, 1.6953697625932407E9, 0.0, 2023-09-22 10:02:42.593
38.0, 3293.909525145236, 187500.0, 187500.0, 187500.0, 187500.0, 187500.0, 187500.0, 187500.0, 0.038, 0.158, 0.962, 192.0, 0.0, 0.0, 0.0, 0.0, 0.0, 0.0, 0.0, 0.0, 0.0, 1.6953697625932603E9, 0.0, 2023-09-22 10:02:42.593
39.0, 3294.423615267708, 187500.0, 187500.0, 187500.0, 187500.0, 187500.0, 187500.0, 187500.0, 0.038, 0.158, 0.962, 192.0, 0.0, 0.0, 0.0, 0.0, 0.0, 0.0, 0.0, 0.0, 0.0, 1.695369762593282E9, 0.0, 2023-09-22 10:02:42.593
40.0, 3328.688839517694, 187500.0, 187500.0, 187500.0, 187500.0, 187500.0, 187500.0, 187500.0, 0.038, 0.158, 0.962, 192.0, 0.0, 0.0, 0.0, 0.0, 0.0, 0.0, 0.0, 0.0, 0.0, 1.6953697625933027E9, 0.0, 2023-09-22 10:02:42.593
41.0, 3347.9783949826237, 187500.0, 187500.0, 187500.0, 187500.0, 187500.0, 187500.0, 187500.0, 0.038, 0.158, 0.962, 192.0, 0.0, 0.0, 0.0, 0.0, 0.0, 0.0, 0.0, 0.0, 0.0, 1.6953697625933218E9, 0.0, 2023-09-22 10:02:42.593
42.0, 3357.321424164942, 187500.0, 187500.0, 187500.0, 187500.0, 187500.0, 187500.0, 187500.0, 0.038, 0.158, 0.962, 192.0, 0.0, 0.0, 0.0, 0.0, 0.0, 0.0, 0.0, 0.0, 0.0, 1.6953697625933423E9, 0.0, 2023-09-22 10:02:42.593
43.0, 3355.935616008713, 187500.0, 187500.0, 187500.0, 187500.0, 187500.0, 187500.0, 187500.0, 0.038, 0.158, 0.962, 192.0, 0.0, 0.0, 0.0, 0.0, 0.0, 0.0, 0.0, 0.0, 0.0, 1.6953697625933638E9, 0.0, 2023-09-22 10:02:42.593
44.0, 3321.424522569719, 187500.0, 187500.0, 187500.0, 187500.0, 187500.0, 187500.0, 187500.0, 0.038, 0.158, 0.962, 192.0, 0.0, 0.0, 0.0, 0.0, 0.0, 0.0, 0.0, 0.0, 0.0, 1.6953697625933895E9, 0.0, 2023-09-22 10:02:42.593
45.0, 3303.230202583099, 187500.0, 187500.0, 187500.0, 187500.0, 187500.0, 187500.0, 187500.0, 0.038, 0.158, 0.962, 192.0, 0.0, 0.0, 0.0, 0.0, 0.0, 0.0, 0.0, 0.0, 0.0, 1.69536976259341E9, 0.0, 2023-09-22 10:02:42.593
46.0, 3294.4459670121632, 187500.0, 187500.0, 187500.0, 187500.0, 187500.0, 187500.0, 187500.0, 0.038, 0.16, 0.978, 192.0, 1.0, 48.0, 5.0, 0.0, 30.0, 144.0, 0.0, 0.0, 0.0, 1.6953697625934296E9, 0.0, 2023-09-22 10:02:42.593
47.0, 3295.541202490473, 187500.0, 187500.0, 187500.0, 187500.0, 187500.0, 187500.0, 187500.0, 0.038, 0.16, 0.978, 192.0, 0.0, 0.0, 0.0, 0.0, 0.0, 0.0, 0.0, 0.0, 0.0, 1.6953697625934508E9, 0.0, 2023-09-22 10:02:42.593
48.0, 3329.068819173434, 187500.0, 187500.0, 187500.0, 187500.0, 187500.0, 187500.0, 187500.0, 0.038, 0.16, 0.978, 192.0, 0.0, 0.0, 0.0, 0.0, 0.0, 0.0, 0.0, 0.0, 0.0, 1.695369762593474E9, 0.0, 2023-09-22 10:02:42.593
49.0, 3347.196083926688, 187500.0, 187500.0, 187500.0, 187500.0, 187500.0, 187500.0, 187500.0, 0.038, 0.16, 0.978, 192.0, 0.0, 0.0, 0.0, 0.0, 0.0, 0.0, 0.0, 0.0, 0.0, 1.6953697625935016E9, 0.0, 2023-09-22 10:02:42.593
50.0, 3357.2767206760313, 187500.0, 187500.0, 187500.0, 187500.0, 187500.0, 187500.0, 187500.0, 0.038, 0.16, 0.978, 192.0, 0.0, 0.0, 0.0, 0.0, 0.0, 0.0, 0.0, 0.0, 0.0, 1.695369762593528E9, 0.0, 2023-09-22 10:02:42.593
51.0, 3357.2096654426655, 187500.0, 187500.0, 187500.0, 187500.0, 187500.0, 187500.0, 187500.0, 0.038, 0.16, 0.978, 192.0, 0.0, 0.0, 0.0, 0.0, 0.0, 0.0, 0.0, 0.0, 0.0, 1.6953697625935512E9, 0.0, 2023-09-22 10:02:42.593
52.0, 3323.167958637233, 187500.0, 187500.0, 187500.0, 187500.0, 187500.0, 187500.0, 187500.0, 0.038, 0.16, 0.978, 192.0, 0.0, 0.0, 0.0, 0.0, 0.0, 0.0, 0.0, 0.0, 0.0, 1.6953697625935736E9, 0.0, 2023-09-22 10:02:42.593
53.0, 3303.9901618945796, 187500.0, 187500.0, 187500.0, 187500.0, 187500.0, 187500.0, 187500.0, 0.038, 0.16, 0.978, 192.0, 0.0, 0.0, 0.0, 0.0, 0.0, 0.0, 0.0, 0.0, 0.0, 1.6953697625935953E9, 0.0, 2023-09-22 10:02:42.593
54.0, 3294.065987356423, 187500.0, 187500.0, 187500.0, 187500.0, 187500.0, 187500.0, 187500.0, 0.038, 0.16, 0.978, 192.0, 0.0, 0.0, 0.0, 0.0, 0.0, 0.0, 0.0, 0.0, 0.0, 1.6953697625936272E9, 0.0, 2023-09-22 10:02:42.593
55.0, 3294.803594923448, 187500.0, 187500.0, 187500.0, 187500.0, 187500.0, 187500.0, 187500.0, 0.038, 0.16, 0.978, 192.0, 0.0, 0.0, 0.0, 0.0, 0.0, 0.0, 0.0, 0.0, 0.0, 1.6953697625936804E9, 0.0, 2023-09-22 10:02:42.593
56.0, 3329.4935023180847, 187500.0, 187500.0, 187500.0, 187500.0, 187500.0, 187500.0, 187500.0, 0.034, 0.162, 0.978, 192.0, 1.0, 16.0, 5.0, 16.0, 30.0, 144.0, 0.0, 0.0, 0.0, 1.6953697625937083E9, 0.0, 2023-09-22 10:02:42.593
57.0, 3348.559540338462, 187500.0, 187500.0, 187500.0, 187500.0, 187500.0, 187500.0, 187500.0, 0.034, 0.162, 0.978, 192.0, 0.0, 0.0, 0.0, 0.0, 0.0, 0.0, 0.0, 0.0, 0.0, 1.6953697625937324E9, 0.0, 2023-09-22 10:02:42.593
58.0, 3357.656700331772, 187500.0, 187500.0, 187500.0, 187500.0, 187500.0, 187500.0, 187500.0, 0.034, 0.162, 0.978, 192.0, 0.0, 0.0, 0.0, 0.0, 0.0, 0.0, 0.0, 0.0, 0.0, 1.6953697625937557E9, 0.0, 2023-09-22 10:02:42.593
59.0, 3356.516761364551, 187500.0, 187500.0, 187500.0, 187500.0, 187500.0, 187500.0, 187500.0, 0.034, 0.162, 0.978, 192.0, 0.0, 0.0, 0.0, 0.0, 0.0, 0.0, 0.0, 0.0, 0.0, 1.6953697625937753E9, 0.0, 2023-09-22 10:02:42.593
60.0, 3322.9220894482246, 187500.0, 187500.0, 187500.0, 187500.0, 187500.0, 187500.0, 187500.0, 0.034, 0.162, 0.978, 192.0, 0.0, 0.0, 0.0, 0.0, 0.0, 0.0, 0.0, 0.0, 0.0, 1.6953697625937943E9, 0.0, 2023-09-22 10:02:42.593
61.0, 3304.6607142282387, 187500.0, 187500.0, 187500.0, 187500.0, 187500.0, 187500.0, 187500.0, 0.034, 0.162, 0.978, 192.0, 0.0, 0.0, 0.0, 0.0, 0.0, 0.0, 0.0, 0.0, 0.0, 1.6953697625938144E9, 0.0, 2023-09-22 10:02:42.593
62.0, 3294.9600571346355, 187500.0, 187500.0, 187500.0, 187500.0, 187500.0, 187500.0, 187500.0, 0.034, 0.162, 0.978, 192.0, 0.0, 0.0, 0.0, 0.0, 0.0, 0.0, 0.0, 0.0, 0.0, 1.6953697625938337E9, 0.0, 2023-09-22 10:02:42.593
63.0, 3295.0494641124565, 187500.0, 187500.0, 187500.0, 187500.0, 187500.0, 187500.0, 187500.0, 0.034, 0.162, 0.978, 192.0, 0.0, 0.0, 0.0, 0.0, 0.0, 0.0, 0.0, 0.0, 0.0, 1.6953697625938544E9, 0.0, 2023-09-22 10:02:42.593
64.0, 3328.7558947510597, 187500.0, 187500.0, 187500.0, 187500.0, 187500.0, 187500.0, 187500.0, 0.034, 0.162, 0.978, 192.0, 0.0, 0.0, 0.0, 0.0, 0.0, 0.0, 0.0, 0.0, 0.0, 1.6953697625938747E9, 0.0, 2023-09-22 10:02:42.593
65.0, 3347.866636260347, 187500.0, 187500.0, 187500.0, 187500.0, 187500.0, 187500.0, 187500.0, 0.034, 0.162, 0.978, 192.0, 0.0, 0.0, 0.0, 0.0, 0.0, 0.0, 0.0, 0.0, 0.0, 1.6953697625938995E9, 0.0, 2023-09-22 10:02:42.593
66.0, 3357.969624754146, 187500.0, 187500.0, 187500.0, 187500.0, 187500.0, 187500.0, 187500.0, 0.036000000000000004, 0.158, 0.984, 192.0, 1.0, 32.0, 4.0, 240.0, 30.0, 192.0, 0.0, 0.0, 0.0, 1.6953697625939195E9, 0.0, 2023-09-22 10:02:42.593
67.0, 3357.969624754146, 187500.0, 187500.0, 187500.0, 187500.0, 187500.0, 187500.0, 187500.0, 0.036000000000000004, 0.158, 0.984, 192.0, 0.0, 0.0, 0.0, 0.0, 0.0, 0.0, 0.0, 0.0, 0.0, 1.6953697625939395E9, 0.0, 2023-09-22 10:02:42.593
68.0, 3322.8550342148587, 187500.0, 187500.0, 187500.0, 187500.0, 187500.0, 187500.0, 187500.0, 0.036000000000000004, 0.158, 0.984, 192.0, 0.0, 0.0, 0.0, 0.0, 0.0, 0.0, 0.0, 0.0, 0.0, 1.69536976259396E9, 0.0, 2023-09-22 10:02:42.593
69.0, 3303.9901618945796, 187500.0, 187500.0, 187500.0, 187500.0, 187500.0, 187500.0, 187500.0, 0.036000000000000004, 0.158, 0.984, 192.0, 0.0, 0.0, 0.0, 0.0, 0.0, 0.0, 0.0, 0.0, 0.0, 1.6953697625939813E9, 0.0, 2023-09-22 10:02:42.593
70.0, 3295.0271123680013, 187500.0, 187500.0, 187500.0, 187500.0, 187500.0, 187500.0, 187500.0, 0.036000000000000004, 0.158, 0.984, 192.0, 0.0, 0.0, 0.0, 0.0, 0.0, 0.0, 0.0, 0.0, 0.0, 1.6953697625940025E9, 0.0, 2023-09-22 10:02:42.594
71.0, 3295.787071679482, 187500.0, 187500.0, 187500.0, 187500.0, 187500.0, 187500.0, 187500.0, 0.036000000000000004, 0.158, 0.984, 192.0, 0.0, 0.0, 0.0, 0.0, 0.0, 0.0, 0.0, 0.0, 0.0, 1.6953697625940232E9, 0.0, 2023-09-22 10:02:42.594
72.0, 3329.873481973825, 187500.0, 187500.0, 187500.0, 187500.0, 187500.0, 187500.0, 187500.0, 0.036000000000000004, 0.158, 0.984, 192.0, 0.0, 0.0, 0.0, 0.0, 0.0, 0.0, 0.0, 0.0, 0.0, 1.6953697625940447E9, 0.0, 2023-09-22 10:02:42.594
73.0, 3347.7548775380706, 187500.0, 187500.0, 187500.0, 187500.0, 187500.0, 187500.0, 187500.0, 0.036000000000000004, 0.158, 0.984, 192.0, 0.0, 0.0, 0.0, 0.0, 0.0, 0.0, 0.0, 0.0, 0.0, 1.695369762594068E9, 0.0, 2023-09-22 10:02:42.594
74.0, 3357.1426102092996, 187500.0, 187500.0, 187500.0, 187500.0, 187500.0, 187500.0, 187500.0, 0.036000000000000004, 0.158, 0.984, 192.0, 0.0, 0.0, 0.0, 0.0, 0.0, 0.0, 0.0, 0.0, 0.0, 1.695369762594091E9, 0.0, 2023-09-22 10:02:42.594
75.0, 3356.4720578756405, 187500.0, 187500.0, 187500.0, 187500.0, 187500.0, 187500.0, 187500.0, 0.036000000000000004, 0.158, 0.984, 192.0, 0.0, 0.0, 0.0, 0.0, 0.0, 0.0, 0.0, 0.0, 0.0, 1.6953697625941129E9, 0.0, 2023-09-22 10:02:42.594
76.0, 3322.832682470403, 187500.0, 187500.0, 187500.0, 187500.0, 187500.0, 187500.0, 187500.0, 0.034, 0.156, 0.986, 192.0, 1.0, 16.0, 4.0, 224.0, 30.0, 208.0, 0.0, 0.0, 0.0, 1.6953697625941334E9, 0.0, 2023-09-22 10:02:42.594
77.0, 3304.683065972694, 187500.0, 187500.0, 187500.0, 187500.0, 187500.0, 187500.0, 187500.0, 0.034, 0.156, 0.986, 192.0, 0.0, 0.0, 0.0, 0.0, 0.0, 0.0, 0.0, 0.0, 0.0, 1.6953697625941637E9, 0.0, 2023-09-22 10:02:42.594
78.0, 3294.6918362011716, 187500.0, 187500.0, 187500.0, 187500.0, 187500.0, 187500.0, 187500.0, 0.034, 0.156, 0.986, 192.0, 0.0, 0.0, 0.0, 0.0, 0.0, 0.0, 0.0, 0.0, 0.0, 1.6953697625941873E9, 0.0, 2023-09-22 10:02:42.594
79.0, 3294.803594923448, 187500.0, 187500.0, 187500.0, 187500.0, 187500.0, 187500.0, 187500.0, 0.034, 0.156, 0.986, 192.0, 0.0, 0.0, 0.0, 0.0, 0.0, 0.0, 0.0, 0.0, 0.0, 1.6953697625942097E9, 0.0, 2023-09-22 10:02:42.594
80.0, 3328.5994325398724, 187500.0, 187500.0, 187500.0, 187500.0, 187500.0, 187500.0, 187500.0, 0.034, 0.156, 0.986, 192.0, 0.0, 0.0, 0.0, 0.0, 0.0, 0.0, 0.0, 0.0, 0.0, 1.6953697625942328E9, 0.0, 2023-09-22 10:02:42.594
81.0, 3348.0230984715345, 187500.0, 187500.0, 187500.0, 187500.0, 187500.0, 187500.0, 187500.0, 0.034, 0.156, 0.986, 192.0, 0.0, 0.0, 0.0, 0.0, 0.0, 0.0, 0.0, 0.0, 0.0, 1.6953697625942557E9, 0.0, 2023-09-22 10:02:42.594
82.0, 3357.7908107985036, 187500.0, 187500.0, 187500.0, 187500.0, 187500.0, 187500.0, 187500.0, 0.034, 0.156, 0.986, 192.0, 0.0, 0.0, 0.0, 0.0, 0.0, 0.0, 0.0, 0.0, 0.0, 1.6953697625942776E9, 0.0, 2023-09-22 10:02:42.594
83.0, 3356.5391131090064, 187500.0, 187500.0, 187500.0, 187500.0, 187500.0, 187500.0, 187500.0, 0.034, 0.156, 0.986, 192.0, 0.0, 0.0, 0.0, 0.0, 0.0, 0.0, 0.0, 0.0, 0.0, 1.6953697625942993E9, 0.0, 2023-09-22 10:02:42.594
84.0, 3322.162130136744, 187500.0, 187500.0, 187500.0, 187500.0, 187500.0, 187500.0, 187500.0, 0.034, 0.156, 0.986, 192.0, 0.0, 0.0, 0.0, 0.0, 0.0, 0.0, 0.0, 0.0, 0.0, 1.6953697625943208E9, 0.0, 2023-09-22 10:02:42.594
85.0, 3304.0125136390348, 187500.0, 187500.0, 187500.0, 187500.0, 187500.0, 187500.0, 187500.0, 0.034, 0.156, 0.986, 192.0, 0.0, 0.0, 0.0, 0.0, 0.0, 0.0, 0.0, 0.0, 0.0, 1.6953697625943422E9, 0.0, 2023-09-22 10:02:42.594
86.0, 3295.071815856912, 187500.0, 187500.0, 187500.0, 187500.0, 187500.0, 187500.0, 187500.0, 0.03, 0.154, 0.99, 192.0, 0.0, 240.0, 4.0, 208.0, 30.0, 240.0, 0.0, 0.0, 0.0, 1.6953697625943644E9, 0.0, 2023-09-22 10:02:42.594
87.0, 3296.077644357401, 187500.0, 187500.0, 187500.0, 187500.0, 187500.0, 187500.0, 187500.0, 0.03, 0.154, 0.99, 192.0, 0.0, 0.0, 0.0, 0.0, 0.0, 0.0, 0.0, 0.0, 0.0, 1.695369762594392E9, 0.0, 2023-09-22 10:02:42.594
88.0, 3329.337040106898, 187500.0, 187500.0, 187500.0, 187500.0, 187500.0, 187500.0, 187500.0, 0.03, 0.154, 0.99, 192.0, 0.0, 0.0, 0.0, 0.0, 0.0, 0.0, 0.0, 0.0, 0.0, 1.695369762594415E9, 0.0, 2023-09-22 10:02:42.594
89.0, 3347.911339749258, 187500.0, 187500.0, 187500.0, 187500.0, 187500.0, 187500.0, 187500.0, 0.03, 0.154, 0.99, 192.0, 0.0, 0.0, 0.0, 0.0, 0.0, 0.0, 0.0, 0.0, 0.0, 1.6953697625944371E9, 0.0, 2023-09-22 10:02:42.594
90.0, 3357.388479398308, 187500.0, 187500.0, 187500.0, 187500.0, 187500.0, 187500.0, 187500.0, 0.03, 0.154, 0.99, 192.0, 0.0, 0.0, 0.0, 0.0, 0.0, 0.0, 0.0, 0.0, 0.0, 1.6953697625944595E9, 0.0, 2023-09-22 10:02:42.594
91.0, 3357.097906720389, 187500.0, 187500.0, 187500.0, 187500.0, 187500.0, 187500.0, 187500.0, 0.03, 0.154, 0.99, 192.0, 0.0, 0.0, 0.0, 0.0, 0.0, 0.0, 0.0, 0.0, 0.0, 1.6953697625944855E9, 0.0, 2023-09-22 10:02:42.594
92.0, 3322.6985720036714, 187500.0, 187500.0, 187500.0, 187500.0, 187500.0, 187500.0, 187500.0, 0.03, 0.154, 0.99, 192.0, 0.0, 0.0, 0.0, 0.0, 0.0, 0.0, 0.0, 0.0, 0.0, 1.695369762594529E9, 0.0, 2023-09-22 10:02:42.594
93.0, 3303.6995892166606, 187500.0, 187500.0, 187500.0, 187500.0, 187500.0, 187500.0, 187500.0, 0.03, 0.154, 0.99, 192.0, 0.0, 0.0, 0.0, 0.0, 0.0, 0.0, 0.0, 0.0, 0.0, 1.69536976259456E9, 0.0, 2023-09-22 10:02:42.594
94.0, 3294.065987356423, 187500.0, 187500.0, 187500.0, 187500.0, 187500.0, 187500.0, 187500.0, 0.03, 0.154, 0.99, 192.0, 0.0, 0.0, 0.0, 0.0, 0.0, 0.0, 0.0, 0.0, 0.0, 1.695369762594583E9, 0.0, 2023-09-22 10:02:42.594
95.0, 3295.3400367903755, 187500.0, 187500.0, 187500.0, 187500.0, 187500.0, 187500.0, 187500.0, 0.03, 0.154, 0.99, 192.0, 0.0, 0.0, 0.0, 0.0, 0.0, 0.0, 0.0, 0.0, 0.0, 1.6953697625946052E9, 0.0, 2023-09-22 10:02:42.594
96.0, 3329.359391851353, 187500.0, 187500.0, 187500.0, 187500.0, 187500.0, 187500.0, 187500.0, 0.032, 0.156, 0.99, 192.0, 1.0, 0.0, 4.0, 224.0, 30.0, 240.0, 0.0, 0.0, 0.0, 1.6953697625946271E9, 0.0, 2023-09-22 10:02:42.594
97.0, 3348.0230984715345, 187500.0, 187500.0, 187500.0, 187500.0, 187500.0, 187500.0, 187500.0, 0.032, 0.156, 0.99, 192.0, 0.0, 0.0, 0.0, 0.0, 0.0, 0.0, 0.0, 0.0, 0.0, 1.6953697625946493E9, 0.0, 2023-09-22 10:02:42.594
98.0, 3357.5225898650397, 187500.0, 187500.0, 187500.0, 187500.0, 187500.0, 187500.0, 187500.0, 0.032, 0.156, 0.99, 192.0, 0.0, 0.0, 0.0, 0.0, 0.0, 0.0, 0.0, 0.0, 0.0, 1.6953697625946715E9, 0.0, 2023-09-22 10:02:42.594
99.0, 3356.4944096200957, 187500.0, 187500.0, 187500.0, 187500.0, 187500.0, 187500.0, 187500.0, 0.032, 0.156, 0.99, 192.0, 0.0, 0.0, 0.0, 0.0, 0.0, 0.0, 0.0, 0.0, 0.0, 1.6953697625946934E9, 0.0, 2023-09-22 10:02:42.594
100.0, 3322.3409440923865, 187500.0, 187500.0, 187500.0, 187500.0, 187500.0, 187500.0, 187500.0, 0.032, 0.156, 0.99, 192.0, 0.0, 0.0, 0.0, 0.0, 0.0, 0.0, 0.0, 0.0, 0.0, 1.6953697625947187E9, 0.0, 2023-09-22 10:02:42.594
101.0, 3304.683065972694, 187500.0, 187500.0, 187500.0, 187500.0, 187500.0, 187500.0, 187500.0, 0.032, 0.156, 0.99, 192.0, 0.0, 0.0, 0.0, 0.0, 0.0, 0.0, 0.0, 0.0, 0.0, 1.695369762594743E9, 0.0, 2023-09-22 10:02:42.594
102.0, 3295.451795512652, 187500.0, 187500.0, 187500.0, 187500.0, 187500.0, 187500.0, 187500.0, 0.032, 0.156, 0.99, 192.0, 0.0, 0.0, 0.0, 0.0, 0.0, 0.0, 0.0, 0.0, 0.0, 1.6953697625947676E9, 0.0, 2023-09-22 10:02:42.594
103.0, 3295.3400367903755, 187500.0, 187500.0, 187500.0, 187500.0, 187500.0, 187500.0, 187500.0, 0.032, 0.156, 0.99, 192.0, 0.0, 0.0, 0.0, 0.0, 0.0, 0.0, 0.0, 0.0, 0.0, 1.6953697625947905E9, 0.0, 2023-09-22 10:02:42.594
104.0, 3328.5994325398724, 187500.0, 187500.0, 187500.0, 187500.0, 187500.0, 187500.0, 187500.0, 0.032, 0.156, 0.99, 192.0, 0.0, 0.0, 0.0, 0.0, 0.0, 0.0, 0.0, 0.0, 0.0, 1.6953697625948133E9, 0.0, 2023-09-22 10:02:42.594
105.0, 3348.000746727079, 187500.0, 187500.0, 187500.0, 187500.0, 187500.0, 187500.0, 187500.0, 0.032, 0.156, 0.99, 192.0, 0.0, 0.0, 0.0, 0.0, 0.0, 0.0, 0.0, 0.0, 0.0, 1.6953697625948358E9, 0.0, 2023-09-22 10:02:42.594
106.0, 3357.991976498601, 187500.0, 187500.0, 187500.0, 187500.0, 187500.0, 187500.0, 187500.0, 0.038, 0.156, 0.992, 192.0, 1.0, 48.0, 4.0, 224.0, 31.0, 0.0, 0.0, 0.0, 0.0, 1.6953697625948584E9, 0.0, 2023-09-22 10:02:42.594
107.0, 3357.0755549759338, 187500.0, 187500.0, 187500.0, 187500.0, 187500.0, 187500.0, 187500.0, 0.038, 0.156, 0.992, 192.0, 0.0, 0.0, 0.0, 0.0, 0.0, 0.0, 0.0, 0.0, 0.0, 1.6953697625948808E9, 0.0, 2023-09-22 10:02:42.594
108.0, 3322.743275492582, 187500.0, 187500.0, 187500.0, 187500.0, 187500.0, 187500.0, 187500.0, 0.038, 0.156, 0.992, 192.0, 0.0, 0.0, 0.0, 0.0, 0.0, 0.0, 0.0, 0.0, 0.0, 1.695369762594924E9, 0.0, 2023-09-22 10:02:42.594
109.0, 3303.677237472205, 187500.0, 187500.0, 187500.0, 187500.0, 187500.0, 187500.0, 187500.0, 0.038, 0.156, 0.992, 192.0, 0.0, 0.0, 0.0, 0.0, 0.0, 0.0, 0.0, 0.0, 0.0, 1.6953697625949512E9, 0.0, 2023-09-22 10:02:42.594
110.0, 3294.1777460787, 187500.0, 187500.0, 187500.0, 187500.0, 187500.0, 187500.0, 187500.0, 0.038, 0.156, 0.992, 192.0, 0.0, 0.0, 0.0, 0.0, 0.0, 0.0, 0.0, 0.0, 0.0, 1.6953697625949776E9, 0.0, 2023-09-22 10:02:42.594
111.0, 3295.228278068099, 187500.0, 187500.0, 187500.0, 187500.0, 187500.0, 187500.0, 187500.0, 0.038, 0.156, 0.992, 192.0, 0.0, 0.0, 0.0, 0.0, 0.0, 0.0, 0.0, 0.0, 0.0, 1.695369762595003E9, 0.0, 2023-09-22 10:02:42.595
112.0, 3329.739371507093, 187500.0, 187500.0, 187500.0, 187500.0, 187500.0, 187500.0, 187500.0, 0.038, 0.156, 0.992, 192.0, 0.0, 0.0, 0.0, 0.0, 0.0, 0.0, 0.0, 0.0, 0.0, 1.6953697625950296E9, 0.0, 2023-09-22 10:02:42.595
113.0, 3348.0230984715345, 187500.0, 187500.0, 187500.0, 187500.0, 187500.0, 187500.0, 187500.0, 0.038, 0.156, 0.992, 192.0, 0.0, 0.0, 0.0, 0.0, 0.0, 0.0, 0.0, 0.0, 0.0, 1.6953697625950532E9, 0.0, 2023-09-22 10:02:42.595
114.0, 3357.455534631674, 187500.0, 187500.0, 187500.0, 187500.0, 187500.0, 187500.0, 187500.0, 0.038, 0.156, 0.992, 192.0, 0.0, 0.0, 0.0, 0.0, 0.0, 0.0, 0.0, 0.0, 0.0, 1.695369762595076E9, 0.0, 2023-09-22 10:02:42.595
115.0, 3356.583816597917, 187500.0, 187500.0, 187500.0, 187500.0, 187500.0, 187500.0, 187500.0, 0.038, 0.156, 0.992, 192.0, 0.0, 0.0, 0.0, 0.0, 0.0, 0.0, 0.0, 0.0, 0.0, 1.6953697625950987E9, 0.0, 2023-09-22 10:02:42.595
116.0, 3323.4361795706964, 187500.0, 187500.0, 187500.0, 187500.0, 187500.0, 187500.0, 187500.0, 0.03, 0.164, 0.992, 192.0, 0.0, 240.0, 5.0, 32.0, 31.0, 0.0, 0.0, 0.0, 0.0, 1.6953697625951214E9, 0.0, 2023-09-22 10:02:42.595
117.0, 3305.331266561898, 187500.0, 187500.0, 187500.0, 187500.0, 187500.0, 187500.0, 187500.0, 0.03, 0.164, 0.992, 192.0, 0.0, 0.0, 0.0, 0.0, 0.0, 0.0, 0.0, 0.0, 0.0, 1.695369762595144E9, 0.0, 2023-09-22 10:02:42.595
118.0, 3295.228278068099, 187500.0, 187500.0, 187500.0, 187500.0, 187500.0, 187500.0, 187500.0, 0.03, 0.164, 0.992, 192.0, 0.0, 0.0, 0.0, 0.0, 0.0, 0.0, 0.0, 0.0, 0.0, 1.6953697625951672E9, 0.0, 2023-09-22 10:02:42.595
119.0, 3295.8988304017585, 187500.0, 187500.0, 187500.0, 187500.0, 187500.0, 187500.0, 187500.0, 0.03, 0.164, 0.992, 192.0, 0.0, 0.0, 0.0, 0.0, 0.0, 0.0, 0.0, 0.0, 0.0, 1.69536976259519E9, 0.0, 2023-09-22 10:02:42.595
120.0, 3329.6946680181827, 187500.0, 187500.0, 187500.0, 187500.0, 187500.0, 187500.0, 187500.0, 0.03, 0.164, 0.992, 192.0, 0.0, 0.0, 0.0, 0.0, 0.0, 0.0, 0.0, 0.0, 0.0, 1.6953697625952125E9, 0.0, 2023-09-22 10:02:42.595
121.0, 3348.648947316283, 187500.0, 187500.0, 187500.0, 187500.0, 187500.0, 187500.0, 187500.0, 0.03, 0.164, 0.992, 192.0, 0.0, 0.0, 0.0, 0.0, 0.0, 0.0, 0.0, 0.0, 0.0, 1.695369762595234E9, 0.0, 2023-09-22 10:02:42.595
122.0, 3358.2154939431543, 187500.0, 187500.0, 187500.0, 187500.0, 187500.0, 187500.0, 187500.0, 0.03, 0.164, 0.992, 192.0, 0.0, 0.0, 0.0, 0.0, 0.0, 0.0, 0.0, 0.0, 0.0, 1.6953697630715673E9, 0.0, 2023-09-22 10:02:43.071
123.0, 3356.7626305535596, 187500.0, 187500.0, 187500.0, 187500.0, 187500.0, 187500.0, 187500.0, 0.03, 0.164, 0.992, 192.0, 0.0, 0.0, 0.0, 0.0, 0.0, 0.0, 0.0, 0.0, 0.0, 1.6953697630717995E9, 0.0, 2023-09-22 10:02:43.071
124.0, 3322.7879789814924, 187500.0, 187500.0, 187500.0, 187500.0, 187500.0, 187500.0, 187500.0, 0.03, 0.164, 0.992, 192.0, 0.0, 0.0, 0.0, 0.0, 0.0, 0.0, 0.0, 0.0, 0.0, 1.695369763071859E9, 0.0, 2023-09-22 10:02:43.071
125.0, 3304.3477898058645, 187500.0, 187500.0, 187500.0, 187500.0, 187500.0, 187500.0, 187500.0, 0.03, 0.164, 0.992, 192.0, 0.0, 0.0, 0.0, 0.0, 0.0, 0.0, 0.0, 0.0, 0.0, 1.6953697630718863E9, 0.0, 2023-09-22 10:02:43.071
126.0, 3294.7588914345374, 187500.0, 187500.0, 187500.0, 187500.0, 187500.0, 187500.0, 187500.0, 0.034, 0.158, 0.99, 192.0, 1.0, 16.0, 4.0, 240.0, 30.0, 240.0, 0.0, 0.0, 0.0, 1.695369763071914E9, 0.0, 2023-09-22 10:02:43.071
127.0, 3296.03294086849, 187500.0, 187500.0, 187500.0, 187500.0, 187500.0, 187500.0, 187500.0, 0.034, 0.158, 0.99, 192.0, 0.0, 0.0, 0.0, 0.0, 0.0, 0.0, 0.0, 0.0, 0.0, 1.695369763071948E9, 0.0, 2023-09-22 10:02:43.071
128.0, 3329.4711505736295, 187500.0, 187500.0, 187500.0, 187500.0, 187500.0, 187500.0, 187500.0, 0.034, 0.158, 0.99, 192.0, 0.0, 0.0, 0.0, 0.0, 0.0, 0.0, 0.0, 0.0, 0.0, 1.6953697630719748E9, 0.0, 2023-09-22 10:02:43.071
129.0, 3347.933691493713, 187500.0, 187500.0, 187500.0, 187500.0, 187500.0, 187500.0, 187500.0, 0.034, 0.158, 0.99, 192.0, 0.0, 0.0, 0.0, 0.0, 0.0, 0.0, 0.0, 0.0, 0.0, 1.695369763072161E9, 0.0, 2023-09-22 10:02:43.072
130.0, 3357.5896450984055, 187500.0, 187500.0, 187500.0, 187500.0, 187500.0, 187500.0, 187500.0, 0.034, 0.158, 0.99, 192.0, 0.0, 0.0, 0.0, 0.0, 0.0, 0.0, 0.0, 0.0, 0.0, 1.695369763072184E9, 0.0, 2023-09-22 10:02:43.072
131.0, 3357.030851487023, 187500.0, 187500.0, 187500.0, 187500.0, 187500.0, 187500.0, 187500.0, 0.034, 0.158, 0.99, 192.0, 0.0, 0.0, 0.0, 0.0, 0.0, 0.0, 0.0, 0.0, 0.0, 1.6953697630722055E9, 0.0, 2023-09-22 10:02:43.072
132.0, 3323.167958637233, 187500.0, 187500.0, 187500.0, 187500.0, 187500.0, 187500.0, 187500.0, 0.034, 0.158, 0.99, 192.0, 0.0, 0.0, 0.0, 0.0, 0.0, 0.0, 0.0, 0.0, 0.0, 1.6953697630722296E9, 0.0, 2023-09-22 10:02:43.072
133.0, 3304.4148450392304, 187500.0, 187500.0, 187500.0, 187500.0, 187500.0, 187500.0, 187500.0, 0.034, 0.158, 0.99, 192.0, 0.0, 0.0, 0.0, 0.0, 0.0, 0.0, 0.0, 0.0, 0.0, 1.6953697630722523E9, 0.0, 2023-09-22 10:02:43.072
134.0, 3294.781243178993, 187500.0, 187500.0, 187500.0, 187500.0, 187500.0, 187500.0, 187500.0, 0.034, 0.158, 0.99, 192.0, 0.0, 0.0, 0.0, 0.0, 0.0, 0.0, 0.0, 0.0, 0.0, 1.6953697630722733E9, 0.0, 2023-09-22 10:02:43.072
135.0, 3295.8541269128477, 187500.0, 187500.0, 187500.0, 187500.0, 187500.0, 187500.0, 187500.0, 0.034, 0.158, 0.99, 192.0, 0.0, 0.0, 0.0, 0.0, 0.0, 0.0, 0.0, 0.0, 0.0, 1.6953697630722947E9, 0.0, 2023-09-22 10:02:43.072
136.0, 3329.806426740459, 187500.0, 187500.0, 187500.0, 187500.0, 187500.0, 187500.0, 187500.0, 0.036000000000000004, 0.156, 0.988, 192.0, 1.0, 32.0, 4.0, 224.0, 30.0, 224.0, 0.0, 0.0, 0.0, 1.6953697630723157E9, 0.0, 2023-09-22 10:02:43.072
137.0, 3349.4089066277634, 187500.0, 187500.0, 187500.0, 187500.0, 187500.0, 187500.0, 187500.0, 0.036000000000000004, 0.156, 0.988, 192.0, 0.0, 0.0, 0.0, 0.0, 0.0, 0.0, 0.0, 0.0, 0.0, 1.695369763072337E9, 0.0, 2023-09-22 10:02:43.072
138.0, 3358.3049009209753, 187500.0, 187500.0, 187500.0, 187500.0, 187500.0, 187500.0, 187500.0, 0.036000000000000004, 0.156, 0.988, 192.0, 0.0, 0.0, 0.0, 0.0, 0.0, 0.0, 0.0, 0.0, 0.0, 1.695369763072358E9, 0.0, 2023-09-22 10:02:43.072
139.0, 3356.8743892758357, 187500.0, 187500.0, 187500.0, 187500.0, 187500.0, 187500.0, 187500.0, 0.036000000000000004, 0.156, 0.988, 192.0, 0.0, 0.0, 0.0, 0.0, 0.0, 0.0, 0.0, 0.0, 0.0, 1.6953697630723789E9, 0.0, 2023-09-22 10:02:43.072
140.0, 3323.167958637233, 187500.0, 187500.0, 187500.0, 187500.0, 187500.0, 187500.0, 187500.0, 0.036000000000000004, 0.156, 0.988, 192.0, 0.0, 0.0, 0.0, 0.0, 0.0, 0.0, 0.0, 0.0, 0.0, 1.695369763072414E9, 0.0, 2023-09-22 10:02:43.072
141.0, 3305.286563072987, 187500.0, 187500.0, 187500.0, 187500.0, 187500.0, 187500.0, 187500.0, 0.036000000000000004, 0.156, 0.988, 192.0, 0.0, 0.0, 0.0, 0.0, 0.0, 0.0, 0.0, 0.0, 0.0, 1.6953697630724406E9, 0.0, 2023-09-22 10:02:43.072
142.0, 3295.9435338906687, 187500.0, 187500.0, 187500.0, 187500.0, 187500.0, 187500.0, 187500.0, 0.036000000000000004, 0.156, 0.988, 192.0, 0.0, 0.0, 0.0, 0.0, 0.0, 0.0, 0.0, 0.0, 0.0, 1.695369763072467E9, 0.0, 2023-09-22 10:02:43.072
143.0, 3296.234106568588, 187500.0, 187500.0, 187500.0, 187500.0, 187500.0, 187500.0, 187500.0, 0.036000000000000004, 0.156, 0.988, 192.0, 0.0, 0.0, 0.0, 0.0, 0.0, 0.0, 0.0, 0.0, 0.0, 1.6953697630724976E9, 0.0, 2023-09-22 10:02:43.072
144.0, 3329.2476331290763, 187500.0, 187500.0, 187500.0, 187500.0, 187500.0, 187500.0, 187500.0, 0.036000000000000004, 0.156, 0.988, 192.0, 0.0, 0.0, 0.0, 0.0, 0.0, 0.0, 0.0, 0.0, 0.0, 1.6953697630725305E9, 0.0, 2023-09-22 10:02:43.072
145.0, 3348.0678019604447, 187500.0, 187500.0, 187500.0, 187500.0, 187500.0, 187500.0, 187500.0, 0.036000000000000004, 0.156, 0.988, 192.0, 0.0, 0.0, 0.0, 0.0, 0.0, 0.0, 0.0, 0.0, 0.0, 1.695369763072564E9, 0.0, 2023-09-22 10:02:43.072
146.0, 3358.260197432065, 187500.0, 187500.0, 187500.0, 187500.0, 187500.0, 187500.0, 187500.0, 0.036000000000000004, 0.158, 0.988, 192.0, 1.0, 32.0, 4.0, 240.0, 30.0, 224.0, 0.0, 0.0, 0.0, 1.6953697630725904E9, 0.0, 2023-09-22 10:02:43.072
147.0, 3357.656700331772, 187500.0, 187500.0, 187500.0, 187500.0, 187500.0, 187500.0, 187500.0, 0.036000000000000004, 0.158, 0.988, 192.0, 0.0, 0.0, 0.0, 0.0, 0.0, 0.0, 0.0, 0.0, 0.0, 1.6953697630726151E9, 0.0, 2023-09-22 10:02:43.072
148.0, 3323.480883059607, 187500.0, 187500.0, 187500.0, 187500.0, 187500.0, 187500.0, 187500.0, 0.036000000000000004, 0.158, 0.988, 192.0, 0.0, 0.0, 0.0, 0.0, 0.0, 0.0, 0.0, 0.0, 0.0, 1.695369763072638E9, 0.0, 2023-09-22 10:02:43.072
149.0, 3304.7277694616046, 187500.0, 187500.0, 187500.0, 187500.0, 187500.0, 187500.0, 187500.0, 0.036000000000000004, 0.158, 0.988, 192.0, 0.0, 0.0, 0.0, 0.0, 0.0, 0.0, 0.0, 0.0, 0.0, 1.6953697630726607E9, 0.0, 2023-09-22 10:02:43.072
150.0, 3295.295333301465, 187500.0, 187500.0, 187500.0, 187500.0, 187500.0, 187500.0, 187500.0, 0.036000000000000004, 0.158, 0.988, 192.0, 0.0, 0.0, 0.0, 0.0, 0.0, 0.0, 0.0, 0.0, 0.0, 1.695369763072683E9, 0.0, 2023-09-22 10:02:43.072
151.0, 3296.4129205242302, 187500.0, 187500.0, 187500.0, 187500.0, 187500.0, 187500.0, 187500.0, 0.036000000000000004, 0.158, 0.988, 192.0, 0.0, 0.0, 0.0, 0.0, 0.0, 0.0, 0.0, 0.0, 0.0, 1.695369763072706E9, 0.0, 2023-09-22 10:02:43.072
152.0, 3330.678144774216, 187500.0, 187500.0, 187500.0, 187500.0, 187500.0, 187500.0, 187500.0, 0.036000000000000004, 0.158, 0.988, 192.0, 0.0, 0.0, 0.0, 0.0, 0.0, 0.0, 0.0, 0.0, 0.0, 1.6953697630727375E9, 0.0, 2023-09-22 10:02:43.072
153.0, 3349.4089066277634, 187500.0, 187500.0, 187500.0, 187500.0, 187500.0, 187500.0, 187500.0, 0.036000000000000004, 0.158, 0.988, 192.0, 0.0, 0.0, 0.0, 0.0, 0.0, 0.0, 0.0, 0.0, 0.0, 1.695369763072767E9, 0.0, 2023-09-22 10:02:43.072
154.0, 3358.0813834764226, 187500.0, 187500.0, 187500.0, 187500.0, 187500.0, 187500.0, 187500.0, 0.036000000000000004, 0.158, 0.988, 192.0, 0.0, 0.0, 0.0, 0.0, 0.0, 0.0, 0.0, 0.0, 0.0, 1.6953697630727952E9, 0.0, 2023-09-22 10:02:43.072
155.0, 3357.321424164942, 187500.0, 187500.0, 187500.0, 187500.0, 187500.0, 187500.0, 187500.0, 0.036000000000000004, 0.158, 0.988, 192.0, 0.0, 0.0, 0.0, 0.0, 0.0, 0.0, 0.0, 0.0, 0.0, 1.695369763072818E9, 0.0, 2023-09-22 10:02:43.072
156.0, 3323.8608627153476, 187500.0, 187500.0, 187500.0, 187500.0, 187500.0, 187500.0, 187500.0, 0.036000000000000004, 0.158, 0.99, 192.0, 1.0, 32.0, 4.0, 240.0, 30.0, 240.0, 0.0, 0.0, 0.0, 1.69536976307284E9, 0.0, 2023-09-22 10:02:43.072
157.0, 3305.241859584077, 187500.0, 187500.0, 187500.0, 187500.0, 187500.0, 187500.0, 187500.0, 0.036000000000000004, 0.158, 0.99, 192.0, 0.0, 0.0, 0.0, 0.0, 0.0, 0.0, 0.0, 0.0, 0.0, 1.6953697630728638E9, 0.0, 2023-09-22 10:02:43.072
158.0, 3295.451795512652, 187500.0, 187500.0, 187500.0, 187500.0, 187500.0, 187500.0, 187500.0, 0.036000000000000004, 0.158, 0.99, 192.0, 0.0, 0.0, 0.0, 0.0, 0.0, 0.0, 0.0, 0.0, 0.0, 1.695369763072886E9, 0.0, 2023-09-22 10:02:43.072
159.0, 3295.831775168392, 187500.0, 187500.0, 187500.0, 187500.0, 187500.0, 187500.0, 187500.0, 0.036000000000000004, 0.158, 0.99, 192.0, 0.0, 0.0, 0.0, 0.0, 0.0, 0.0, 0.0, 0.0, 0.0, 1.695369763072907E9, 0.0, 2023-09-22 10:02:43.072
160.0, 3330.2087581406545, 187500.0, 187500.0, 187500.0, 187500.0, 187500.0, 187500.0, 187500.0, 0.036000000000000004, 0.158, 0.99, 192.0, 0.0, 0.0, 0.0, 0.0, 0.0, 0.0, 0.0, 0.0, 0.0, 1.695369763072929E9, 0.0, 2023-09-22 10:02:43.072
161.0, 3349.0065752275677, 187500.0, 187500.0, 187500.0, 187500.0, 187500.0, 187500.0, 187500.0, 0.036000000000000004, 0.158, 0.99, 192.0, 0.0, 0.0, 0.0, 0.0, 0.0, 0.0, 0.0, 0.0, 0.0, 1.695369763072978E9, 0.0, 2023-09-22 10:02:43.072
162.0, 3359.0425084880007, 187500.0, 187500.0, 187500.0, 187500.0, 187500.0, 187500.0, 187500.0, 0.036000000000000004, 0.158, 0.99, 192.0, 0.0, 0.0, 0.0, 0.0, 0.0, 0.0, 0.0, 0.0, 0.0, 1.6953697630730007E9, 0.0, 2023-09-22 10:02:43.073
163.0, 3358.1037352208778, 187500.0, 187500.0, 187500.0, 187500.0, 187500.0, 187500.0, 187500.0, 0.036000000000000004, 0.158, 0.99, 192.0, 0.0, 0.0, 0.0, 0.0, 0.0, 0.0, 0.0, 0.0, 0.0, 1.6953697630730236E9, 0.0, 2023-09-22 10:02:43.073
164.0, 3323.905566204258, 187500.0, 187500.0, 187500.0, 187500.0, 187500.0, 187500.0, 187500.0, 0.036000000000000004, 0.158, 0.99, 192.0, 0.0, 0.0, 0.0, 0.0, 0.0, 0.0, 0.0, 0.0, 0.0, 1.695369763073046E9, 0.0, 2023-09-22 10:02:43.073
165.0, 3305.5100805175402, 187500.0, 187500.0, 187500.0, 187500.0, 187500.0, 187500.0, 187500.0, 0.036000000000000004, 0.162, 0.99, 192.0, 1.0, 32.0, 5.0, 16.0, 30.0, 240.0, 0.0, 0.0, 0.0, 1.6953697630730731E9, 0.0, 2023-09-22 10:02:43.073
166.0, 3296.077644357401, 187500.0, 187500.0, 187500.0, 187500.0, 187500.0, 187500.0, 187500.0, 0.036000000000000004, 0.162, 0.99, 192.0, 0.0, 0.0, 0.0, 0.0, 0.0, 0.0, 0.0, 0.0, 0.0, 1.6953697630730972E9, 0.0, 2023-09-22 10:02:43.073
167.0, 3297.105824602345, 187500.0, 187500.0, 187500.0, 187500.0, 187500.0, 187500.0, 187500.0, 0.036000000000000004, 0.162, 0.99, 192.0, 0.0, 0.0, 0.0, 0.0, 0.0, 0.0, 0.0, 0.0, 0.0, 1.6953697630731208E9, 0.0, 2023-09-22 10:02:43.073
168.0, 3330.4099238407525, 187500.0, 187500.0, 187500.0, 187500.0, 187500.0, 187500.0, 187500.0, 0.036000000000000004, 0.162, 0.99, 192.0, 0.0, 0.0, 0.0, 0.0, 0.0, 0.0, 0.0, 0.0, 0.0, 1.6953697630731432E9, 0.0, 2023-09-22 10:02:43.073
169.0, 3349.18538918321, 187500.0, 187500.0, 187500.0, 187500.0, 187500.0, 187500.0, 187500.0, 0.036000000000000004, 0.162, 0.99, 192.0, 0.0, 0.0, 0.0, 0.0, 0.0, 0.0, 0.0, 0.0, 0.0, 1.6953697630731635E9, 0.0, 2023-09-22 10:02:43.073
170.0, 3358.416659643252, 187500.0, 187500.0, 187500.0, 187500.0, 187500.0, 187500.0, 187500.0, 0.036000000000000004, 0.162, 0.99, 192.0, 0.0, 0.0, 0.0, 0.0, 0.0, 0.0, 0.0, 0.0, 0.0, 1.6953697630731854E9, 0.0, 2023-09-22 10:02:43.073
171.0, 3358.0813834764226, 187500.0, 187500.0, 187500.0, 187500.0, 187500.0, 187500.0, 187500.0, 0.036000000000000004, 0.162, 0.99, 192.0, 0.0, 0.0, 0.0, 0.0, 0.0, 0.0, 0.0, 0.0, 0.0, 1.6953697630732062E9, 0.0, 2023-09-22 10:02:43.073
172.0, 3324.509063304551, 187500.0, 187500.0, 187500.0, 187500.0, 187500.0, 187500.0, 187500.0, 0.036000000000000004, 0.162, 0.99, 192.0, 0.0, 0.0, 0.0, 0.0, 0.0, 0.0, 0.0, 0.0, 0.0, 1.6953697630732284E9, 0.0, 2023-09-22 10:02:43.073
173.0, 3305.264211328532, 187500.0, 187500.0, 187500.0, 187500.0, 187500.0, 187500.0, 187500.0, 0.036000000000000004, 0.162, 0.99, 192.0, 0.0, 0.0, 0.0, 0.0, 0.0, 0.0, 0.0, 0.0, 0.0, 1.69536976307325E9, 0.0, 2023-09-22 10:02:43.073
174.0, 3295.518850746018, 187500.0, 187500.0, 187500.0, 187500.0, 187500.0, 187500.0, 187500.0, 0.036000000000000004, 0.162, 0.99, 192.0, 0.0, 0.0, 0.0, 0.0, 0.0, 0.0, 0.0, 0.0, 0.0, 1.695369763073271E9, 0.0, 2023-09-22 10:02:43.073
175.0, 3296.524679246507, 187500.0, 187500.0, 187500.0, 187500.0, 187500.0, 187500.0, 187500.0, 0.04, 0.16, 0.992, 192.0, 1.0, 64.0, 5.0, 0.0, 31.0, 0.0, 0.0, 0.0, 0.0, 1.6953697630732937E9, 0.0, 2023-09-22 10:02:43.073
176.0, 3330.8346069854033, 187500.0, 187500.0, 187500.0, 187500.0, 187500.0, 187500.0, 187500.0, 0.04, 0.16, 0.992, 192.0, 0.0, 0.0, 0.0, 0.0, 0.0, 0.0, 0.0, 0.0, 0.0, 1.6953697630733125E9, 0.0, 2023-09-22 10:02:43.073
177.0, 3349.833589772414, 187500.0, 187500.0, 187500.0, 187500.0, 187500.0, 187500.0, 187500.0, 0.04, 0.16, 0.992, 192.0, 0.0, 0.0, 0.0, 0.0, 0.0, 0.0, 0.0, 0.0, 0.0, 1.6953697630733333E9, 0.0, 2023-09-22 10:02:43.073
178.0, 3358.6625288322603, 187500.0, 187500.0, 187500.0, 187500.0, 187500.0, 187500.0, 187500.0, 0.04, 0.16, 0.992, 192.0, 0.0, 0.0, 0.0, 0.0, 0.0, 0.0, 0.0, 0.0, 0.0, 1.6953697630733535E9, 0.0, 2023-09-22 10:02:43.073
179.0, 3357.1426102092996, 187500.0, 187500.0, 187500.0, 187500.0, 187500.0, 187500.0, 187500.0, 0.04, 0.16, 0.992, 192.0, 0.0, 0.0, 0.0, 0.0, 0.0, 0.0, 0.0, 0.0, 0.0, 1.6953697630733743E9, 0.0, 2023-09-22 10:02:43.073
180.0, 3323.5702900374285, 187500.0, 187500.0, 187500.0, 187500.0, 187500.0, 187500.0, 187500.0, 0.04, 0.16, 0.992, 192.0, 0.0, 0.0, 0.0, 0.0, 0.0, 0.0, 0.0, 0.0, 0.0, 1.6953697630733974E9, 0.0, 2023-09-22 10:02:43.073
181.0, 3305.219507839621, 187500.0, 187500.0, 187500.0, 187500.0, 187500.0, 187500.0, 187500.0, 0.04, 0.16, 0.992, 192.0, 0.0, 0.0, 0.0, 0.0, 0.0, 0.0, 0.0, 0.0, 0.0, 1.6953697630734224E9, 0.0, 2023-09-22 10:02:43.073
182.0, 3296.3458652908644, 187500.0, 187500.0, 187500.0, 187500.0, 187500.0, 187500.0, 187500.0, 0.04, 0.16, 0.992, 192.0, 0.0, 0.0, 0.0, 0.0, 0.0, 0.0, 0.0, 0.0, 0.0, 1.6953697630734482E9, 0.0, 2023-09-22 10:02:43.073
183.0, 3296.8823071577917, 187500.0, 187500.0, 187500.0, 187500.0, 187500.0, 187500.0, 187500.0, 0.04, 0.16, 0.992, 192.0, 0.0, 0.0, 0.0, 0.0, 0.0, 0.0, 0.0, 0.0, 0.0, 1.695369763073475E9, 0.0, 2023-09-22 10:02:43.073
184.0, 3330.2758133740203, 187500.0, 187500.0, 187500.0, 187500.0, 187500.0, 187500.0, 187500.0, 0.04, 0.16, 0.992, 192.0, 0.0, 0.0, 0.0, 0.0, 0.0, 0.0, 0.0, 0.0, 0.0, 1.695369763073501E9, 0.0, 2023-09-22 10:02:43.073
185.0, 3349.2747961610316, 187500.0, 187500.0, 187500.0, 187500.0, 187500.0, 187500.0, 187500.0, 0.04, 0.156, 0.988, 192.0, 1.0, 64.0, 4.0, 224.0, 30.0, 224.0, 0.0, 0.0, 0.0, 1.6953697630735276E9, 0.0, 2023-09-22 10:02:43.073
186.0, 3358.8860462768134, 187500.0, 187500.0, 187500.0, 187500.0, 187500.0, 187500.0, 187500.0, 0.04, 0.156, 0.988, 192.0, 0.0, 0.0, 0.0, 0.0, 0.0, 0.0, 0.0, 0.0, 0.0, 1.6953697630735536E9, 0.0, 2023-09-22 10:02:43.073
187.0, 3358.4613631321627, 187500.0, 187500.0, 187500.0, 187500.0, 187500.0, 187500.0, 187500.0, 0.04, 0.156, 0.988, 192.0, 0.0, 0.0, 0.0, 0.0, 0.0, 0.0, 0.0, 0.0, 0.0, 1.6953697630735807E9, 0.0, 2023-09-22 10:02:43.073
188.0, 3324.106731904356, 187500.0, 187500.0, 187500.0, 187500.0, 187500.0, 187500.0, 187500.0, 0.04, 0.156, 0.988, 192.0, 0.0, 0.0, 0.0, 0.0, 0.0, 0.0, 0.0, 0.0, 0.0, 1.6953697630736053E9, 0.0, 2023-09-22 10:02:43.073
189.0, 3305.331266561898, 187500.0, 187500.0, 187500.0, 187500.0, 187500.0, 187500.0, 187500.0, 0.04, 0.156, 0.988, 192.0, 0.0, 0.0, 0.0, 0.0, 0.0, 0.0, 0.0, 0.0, 0.0, 1.695369763073626E9, 0.0, 2023-09-22 10:02:43.073
190.0, 3295.9435338906687, 187500.0, 187500.0, 187500.0, 187500.0, 187500.0, 187500.0, 187500.0, 0.04, 0.156, 0.988, 192.0, 0.0, 0.0, 0.0, 0.0, 0.0, 0.0, 0.0, 0.0, 0.0, 1.695369763073649E9, 0.0, 2023-09-22 10:02:43.073
191.0, 3296.971714135613, 187500.0, 187500.0, 187500.0, 187500.0, 187500.0, 187500.0, 187500.0, 0.04, 0.156, 0.988, 192.0, 0.0, 0.0, 0.0, 0.0, 0.0, 0.0, 0.0, 0.0, 0.0, 1.6953697630736732E9, 0.0, 2023-09-22 10:02:43.073
192.0, 3331.2145866411433, 187500.0, 187500.0, 187500.0, 187500.0, 187500.0, 187500.0, 187500.0, 0.04, 0.156, 0.988, 192.0, 0.0, 0.0, 0.0, 0.0, 0.0, 0.0, 0.0, 0.0, 0.0, 1.6953697630737004E9, 0.0, 2023-09-22 10:02:43.073
193.0, 3349.610072327861, 187500.0, 187500.0, 187500.0, 187500.0, 187500.0, 187500.0, 187500.0, 0.04, 0.156, 0.988, 192.0, 0.0, 0.0, 0.0, 0.0, 0.0, 0.0, 0.0, 0.0, 0.0, 1.6953697630737236E9, 0.0, 2023-09-22 10:02:43.073
194.0, 3358.930749765724, 187500.0, 187500.0, 187500.0, 187500.0, 187500.0, 187500.0, 187500.0, 0.04, 0.156, 0.988, 192.0, 0.0, 0.0, 0.0, 0.0, 0.0, 0.0, 0.0, 0.0, 0.0, 1.6953697630737486E9, 0.0, 2023-09-22 10:02:43.073
195.0, 3358.036679987512, 187500.0, 187500.0, 187500.0, 187500.0, 187500.0, 187500.0, 187500.0, 0.034, 0.154, 0.984, 192.0, 1.0, 16.0, 4.0, 208.0, 30.0, 192.0, 0.0, 0.0, 0.0, 1.6953697630737755E9, 0.0, 2023-09-22 10:02:43.073
196.0, 3324.844339471381, 187500.0, 187500.0, 187500.0, 187500.0, 187500.0, 187500.0, 187500.0, 0.034, 0.154, 0.984, 192.0, 0.0, 0.0, 0.0, 0.0, 0.0, 0.0, 0.0, 0.0, 0.0, 1.695369763073799E9, 0.0, 2023-09-22 10:02:43.073
197.0, 3306.4488537846632, 187500.0, 187500.0, 187500.0, 187500.0, 187500.0, 187500.0, 187500.0, 0.034, 0.154, 0.984, 192.0, 0.0, 0.0, 0.0, 0.0, 0.0, 0.0, 0.0, 0.0, 0.0, 1.6953697630738258E9, 0.0, 2023-09-22 10:02:43.073
198.0, 3296.6364379687834, 187500.0, 187500.0, 187500.0, 187500.0, 187500.0, 187500.0, 187500.0, 0.034, 0.154, 0.984, 192.0, 0.0, 0.0, 0.0, 0.0, 0.0, 0.0, 0.0, 0.0, 0.0, 1.6953697630738535E9, 0.0, 2023-09-22 10:02:43.073
199.0, 3297.061121113434, 187500.0, 187500.0, 187500.0, 187500.0, 187500.0, 187500.0, 187500.0, 0.034, 0.154, 0.984, 192.0, 0.0, 0.0, 0.0, 0.0, 0.0, 0.0, 0.0, 0.0, 0.0, 1.6953697630738792E9, 0.0, 2023-09-22 10:02:43.073
200.0, 3330.8793104743136, 187500.0, 187500.0, 187500.0, 187500.0, 187500.0, 187500.0, 187500.0, 0.034, 0.154, 0.984, 192.0, 0.0, 0.0, 0.0, 0.0, 0.0, 0.0, 0.0, 0.0, 0.0, 1.6953697630739045E9, 0.0, 2023-09-22 10:02:43.073
201.0, 3350.213569428154, 187500.0, 187500.0, 187500.0, 187500.0, 187500.0, 187500.0, 187500.0, 0.034, 0.154, 0.984, 192.0, 0.0, 0.0, 0.0, 0.0, 0.0, 0.0, 0.0, 0.0, 0.0, 1.6953697630739293E9, 0.0, 2023-09-22 10:02:43.073
202.0, 3360.4506683886852, 187500.0, 187500.0, 187500.0, 187500.0, 187500.0, 187500.0, 187500.0, 0.034, 0.154, 0.984, 192.0, 0.0, 0.0, 0.0, 0.0, 0.0, 0.0, 0.0, 0.0, 0.0, 1.6953697630739956E9, 0.0, 2023-09-22 10:02:43.073
203.0, 3359.1766189547325, 187500.0, 187500.0, 187500.0, 187500.0, 187500.0, 187500.0, 187500.0, 0.034, 0.154, 0.984, 192.0, 0.0, 0.0, 0.0, 0.0, 0.0, 0.0, 0.0, 0.0, 0.0, 1.6953697630740173E9, 0.0, 2023-09-22 10:02:43.074
204.0, 3324.9113947047467, 187500.0, 187500.0, 187500.0, 187500.0, 187500.0, 187500.0, 187500.0, 0.034, 0.154, 0.984, 192.0, 0.0, 0.0, 0.0, 0.0, 0.0, 0.0, 0.0, 0.0, 0.0, 1.695369763074042E9, 0.0, 2023-09-22 10:02:43.074
205.0, 3306.3370950623867, 187500.0, 187500.0, 187500.0, 187500.0, 187500.0, 187500.0, 187500.0, 0.034, 0.15, 0.986, 192.0, 1.0, 16.0, 4.0, 176.0, 30.0, 208.0, 0.0, 0.0, 0.0, 1.6953697630740693E9, 0.0, 2023-09-22 10:02:43.074
206.0, 3296.9270106467025, 187500.0, 187500.0, 187500.0, 187500.0, 187500.0, 187500.0, 187500.0, 0.034, 0.15, 0.986, 192.0, 0.0, 0.0, 0.0, 0.0, 0.0, 0.0, 0.0, 0.0, 0.0, 1.6953697630740964E9, 0.0, 2023-09-22 10:02:43.074
207.0, 3297.9775426361016, 187500.0, 187500.0, 187500.0, 187500.0, 187500.0, 187500.0, 187500.0, 0.034, 0.15, 0.986, 192.0, 0.0, 0.0, 0.0, 0.0, 0.0, 0.0, 0.0, 0.0, 0.0, 1.695369763074118E9, 0.0, 2023-09-22 10:02:43.074
208.0, 3331.1251796633223, 187500.0, 187500.0, 187500.0, 187500.0, 187500.0, 187500.0, 187500.0, 0.034, 0.15, 0.986, 192.0, 0.0, 0.0, 0.0, 0.0, 0.0, 0.0, 0.0, 0.0, 0.0, 1.6953697630741425E9, 0.0, 2023-09-22 10:02:43.074
209.0, 3350.1465141947883, 187500.0, 187500.0, 187500.0, 187500.0, 187500.0, 187500.0, 187500.0, 0.034, 0.15, 0.986, 192.0, 0.0, 0.0, 0.0, 0.0, 0.0, 0.0, 0.0, 0.0, 0.0, 1.6953697630741675E9, 0.0, 2023-09-22 10:02:43.074
210.0, 3359.5565986104725, 187500.0, 187500.0, 187500.0, 187500.0, 187500.0, 187500.0, 187500.0, 0.034, 0.15, 0.986, 192.0, 0.0, 0.0, 0.0, 0.0, 0.0, 0.0, 0.0, 0.0, 0.0, 1.695369763074203E9, 0.0, 2023-09-22 10:02:43.074
211.0, 3358.930749765724, 187500.0, 187500.0, 187500.0, 187500.0, 187500.0, 187500.0, 187500.0, 0.034, 0.15, 0.986, 192.0, 0.0, 0.0, 0.0, 0.0, 0.0, 0.0, 0.0, 0.0, 0.0, 1.695369763074228E9, 0.0, 2023-09-22 10:02:43.074
212.0, 3325.4031330827634, 187500.0, 187500.0, 187500.0, 187500.0, 187500.0, 187500.0, 187500.0, 0.034, 0.15, 0.986, 192.0, 0.0, 0.0, 0.0, 0.0, 0.0, 0.0, 0.0, 0.0, 0.0, 1.6953697630742524E9, 0.0, 2023-09-22 10:02:43.074
213.0, 3307.0747026294116, 187500.0, 187500.0, 187500.0, 187500.0, 187500.0, 187500.0, 187500.0, 0.034, 0.15, 0.986, 192.0, 0.0, 0.0, 0.0, 0.0, 0.0, 0.0, 0.0, 0.0, 0.0, 1.6953697630742767E9, 0.0, 2023-09-22 10:02:43.074
214.0, 3296.9493623911576, 187500.0, 187500.0, 187500.0, 187500.0, 187500.0, 187500.0, 187500.0, 0.034, 0.15, 0.986, 192.0, 0.0, 0.0, 0.0, 0.0, 0.0, 0.0, 0.0, 0.0, 0.0, 1.6953697630743E9, 0.0, 2023-09-22 10:02:43.074
215.0, 3297.5081560025405, 187500.0, 187500.0, 187500.0, 187500.0, 187500.0, 187500.0, 187500.0, 0.032, 0.152, 0.986, 192.0, 1.0, 0.0, 4.0, 192.0, 30.0, 208.0, 0.0, 0.0, 0.0, 1.6953697630743237E9, 0.0, 2023-09-22 10:02:43.074
216.0, 3331.32634536342, 187500.0, 187500.0, 187500.0, 187500.0, 187500.0, 187500.0, 187500.0, 0.032, 0.152, 0.986, 192.0, 0.0, 0.0, 0.0, 0.0, 0.0, 0.0, 0.0, 0.0, 0.0, 1.6953697630743487E9, 0.0, 2023-09-22 10:02:43.074
217.0, 3350.481790361618, 187500.0, 187500.0, 187500.0, 187500.0, 187500.0, 187500.0, 187500.0, 0.032, 0.152, 0.986, 192.0, 0.0, 0.0, 0.0, 0.0, 0.0, 0.0, 0.0, 0.0, 0.0, 1.6953697630743728E9, 0.0, 2023-09-22 10:02:43.074
218.0, 3360.0706887329447, 187500.0, 187500.0, 187500.0, 187500.0, 187500.0, 187500.0, 187500.0, 0.032, 0.152, 0.986, 192.0, 0.0, 0.0, 0.0, 0.0, 0.0, 0.0, 0.0, 0.0, 0.0, 1.6953697630743954E9, 0.0, 2023-09-22 10:02:43.074
219.0, 3359.1095637213666, 187500.0, 187500.0, 187500.0, 187500.0, 187500.0, 187500.0, 187500.0, 0.032, 0.152, 0.986, 192.0, 0.0, 0.0, 0.0, 0.0, 0.0, 0.0, 0.0, 0.0, 0.0, 1.695369763074417E9, 0.0, 2023-09-22 10:02:43.074
220.0, 3324.844339471381, 187500.0, 187500.0, 187500.0, 187500.0, 187500.0, 187500.0, 187500.0, 0.032, 0.152, 0.986, 192.0, 0.0, 0.0, 0.0, 0.0, 0.0, 0.0, 0.0, 0.0, 0.0, 1.6953697630744452E9, 0.0, 2023-09-22 10:02:43.074
221.0, 3306.650019484761, 187500.0, 187500.0, 187500.0, 187500.0, 187500.0, 187500.0, 187500.0, 0.032, 0.152, 0.986, 192.0, 0.0, 0.0, 0.0, 0.0, 0.0, 0.0, 0.0, 0.0, 0.0, 1.6953697630744712E9, 0.0, 2023-09-22 10:02:43.074
222.0, 3297.776376936004, 187500.0, 187500.0, 187500.0, 187500.0, 187500.0, 187500.0, 187500.0, 0.032, 0.152, 0.986, 192.0, 0.0, 0.0, 0.0, 0.0, 0.0, 0.0, 0.0, 0.0, 0.0, 1.6953697630744948E9, 0.0, 2023-09-22 10:02:43.074
223.0, 3298.0222461250123, 187500.0, 187500.0, 187500.0, 187500.0, 187500.0, 187500.0, 187500.0, 0.032, 0.152, 0.986, 192.0, 0.0, 0.0, 0.0, 0.0, 0.0, 0.0, 0.0, 0.0, 0.0, 1.6953697630745184E9, 0.0, 2023-09-22 10:02:43.074
224.0, 3331.4828075746072, 187500.0, 187500.0, 187500.0, 187500.0, 187500.0, 187500.0, 187500.0, 0.032, 0.152, 0.986, 192.0, 0.0, 0.0, 0.0, 0.0, 0.0, 0.0, 0.0, 0.0, 0.0, 1.695369763074541E9, 0.0, 2023-09-22 10:02:43.074
225.0, 3350.481790361618, 187500.0, 187500.0, 187500.0, 187500.0, 187500.0, 187500.0, 187500.0, 0.034, 0.158, 0.986, 192.0, 1.0, 16.0, 4.0, 240.0, 30.0, 208.0, 0.0, 0.0, 0.0, 1.695369763074565E9, 0.0, 2023-09-22 10:02:43.074
226.0, 3360.4283166442297, 187500.0, 187500.0, 187500.0, 187500.0, 187500.0, 187500.0, 187500.0, 0.034, 0.158, 0.986, 192.0, 0.0, 0.0, 0.0, 0.0, 0.0, 0.0, 0.0, 0.0, 0.0, 1.6953697630745893E9, 0.0, 2023-09-22 10:02:43.074
227.0, 3359.958930010668, 187500.0, 187500.0, 187500.0, 187500.0, 187500.0, 187500.0, 187500.0, 0.034, 0.158, 0.986, 192.0, 0.0, 0.0, 0.0, 0.0, 0.0, 0.0, 0.0, 0.0, 0.0, 1.695369763074613E9, 0.0, 2023-09-22 10:02:43.074
228.0, 3326.118388905333, 187500.0, 187500.0, 187500.0, 187500.0, 187500.0, 187500.0, 187500.0, 0.034, 0.158, 0.986, 192.0, 0.0, 0.0, 0.0, 0.0, 0.0, 0.0, 0.0, 0.0, 0.0, 1.695369763074636E9, 0.0, 2023-09-22 10:02:43.074
229.0, 3306.650019484761, 187500.0, 187500.0, 187500.0, 187500.0, 187500.0, 187500.0, 187500.0, 0.034, 0.158, 0.986, 192.0, 0.0, 0.0, 0.0, 0.0, 0.0, 0.0, 0.0, 0.0, 0.0, 1.69536976307466E9, 0.0, 2023-09-22 10:02:43.074
230.0, 3297.2399350690766, 187500.0, 187500.0, 187500.0, 187500.0, 187500.0, 187500.0, 187500.0, 0.034, 0.158, 0.986, 192.0, 0.0, 0.0, 0.0, 0.0, 0.0, 0.0, 0.0, 0.0, 0.0, 1.6953697630746818E9, 0.0, 2023-09-22 10:02:43.074
231.0, 3298.290467058476, 187500.0, 187500.0, 187500.0, 187500.0, 187500.0, 187500.0, 187500.0, 0.034, 0.158, 0.986, 192.0, 0.0, 0.0, 0.0, 0.0, 0.0, 0.0, 0.0, 0.0, 0.0, 1.6953697630747056E9, 0.0, 2023-09-22 10:02:43.074
232.0, 3332.868615730836, 187500.0, 187500.0, 187500.0, 187500.0, 187500.0, 187500.0, 187500.0, 0.034, 0.158, 0.986, 192.0, 0.0, 0.0, 0.0, 0.0, 0.0, 0.0, 0.0, 0.0, 0.0, 1.6953697630747275E9, 0.0, 2023-09-22 10:02:43.074
233.0, 3351.3311566509196, 187500.0, 187500.0, 187500.0, 187500.0, 187500.0, 187500.0, 187500.0, 0.034, 0.158, 0.986, 192.0, 0.0, 0.0, 0.0, 0.0, 0.0, 0.0, 0.0, 0.0, 0.0, 1.6953697630747488E9, 0.0, 2023-09-22 10:02:43.074
234.0, 3359.869523032847, 187500.0, 187500.0, 187500.0, 187500.0, 187500.0, 187500.0, 187500.0, 0.034, 0.158, 0.986, 192.0, 0.0, 0.0, 0.0, 0.0, 0.0, 0.0, 0.0, 0.0, 0.0, 1.69536976307477E9, 0.0, 2023-09-22 10:02:43.074
235.0, 3358.8413427879027, 187500.0, 187500.0, 187500.0, 187500.0, 187500.0, 187500.0, 187500.0, 0.034, 0.16, 0.99, 192.0, 1.0, 16.0, 5.0, 0.0, 30.0, 240.0, 0.0, 0.0, 0.0, 1.6953697630747912E9, 0.0, 2023-09-22 10:02:43.074
236.0, 3325.358429593853, 187500.0, 187500.0, 187500.0, 187500.0, 187500.0, 187500.0, 187500.0, 0.034, 0.16, 0.99, 192.0, 0.0, 0.0, 0.0, 0.0, 0.0, 0.0, 0.0, 0.0, 0.0, 1.695369763074812E9, 0.0, 2023-09-22 10:02:43.074
237.0, 3307.0523508849565, 187500.0, 187500.0, 187500.0, 187500.0, 187500.0, 187500.0, 187500.0, 0.034, 0.16, 0.99, 192.0, 0.0, 0.0, 0.0, 0.0, 0.0, 0.0, 0.0, 0.0, 0.0, 1.6953697630748332E9, 0.0, 2023-09-22 10:02:43.074
238.0, 3297.329342046898, 187500.0, 187500.0, 187500.0, 187500.0, 187500.0, 187500.0, 187500.0, 0.034, 0.16, 0.99, 192.0, 0.0, 0.0, 0.0, 0.0, 0.0, 0.0, 0.0, 0.0, 0.0, 1.695369763074955E9, 0.0, 2023-09-22 10:02:43.074
239.0, 3297.8881356582806, 187500.0, 187500.0, 187500.0, 187500.0, 187500.0, 187500.0, 187500.0, 0.034, 0.16, 0.99, 192.0, 0.0, 0.0, 0.0, 0.0, 0.0, 0.0, 0.0, 0.0, 0.0, 1.6953697630749755E9, 0.0, 2023-09-22 10:02:43.074
240.0, 3331.616918041339, 187500.0, 187500.0, 187500.0, 187500.0, 187500.0, 187500.0, 187500.0, 0.034, 0.16, 0.99, 192.0, 0.0, 0.0, 0.0, 0.0, 0.0, 0.0, 0.0, 0.0, 0.0, 1.695369763074994E9, 0.0, 2023-09-22 10:02:43.074
241.0, 3351.152342695277, 187500.0, 187500.0, 187500.0, 187500.0, 187500.0, 187500.0, 187500.0, 0.034, 0.16, 0.99, 192.0, 0.0, 0.0, 0.0, 0.0, 0.0, 0.0, 0.0, 0.0, 0.0, 1.6953697630750136E9, 0.0, 2023-09-22 10:02:43.075
242.0, 3360.584778855417, 187500.0, 187500.0, 187500.0, 187500.0, 187500.0, 187500.0, 187500.0, 0.034, 0.16, 0.99, 192.0, 0.0, 0.0, 0.0, 0.0, 0.0, 0.0, 0.0, 0.0, 0.0, 1.695369763551649E9, 0.0, 2023-09-22 10:02:43.551
243.0, 3359.7577643105706, 187500.0, 187500.0, 187500.0, 187500.0, 187500.0, 187500.0, 187500.0, 0.034, 0.16, 0.99, 192.0, 0.0, 0.0, 0.0, 0.0, 0.0, 0.0, 0.0, 0.0, 0.0, 1.69536976355187E9, 0.0, 2023-09-22 10:02:43.551
244.0, 3325.447836571674, 187500.0, 187500.0, 187500.0, 187500.0, 187500.0, 187500.0, 187500.0, 0.034, 0.16, 0.99, 192.0, 0.0, 0.0, 0.0, 0.0, 0.0, 0.0, 0.0, 0.0, 0.0, 1.695369763551906E9, 0.0, 2023-09-22 10:02:43.551
245.0, 3306.6723712292164, 187500.0, 187500.0, 187500.0, 187500.0, 187500.0, 187500.0, 187500.0, 0.034, 0.158, 0.988, 192.0, 1.0, 16.0, 4.0, 240.0, 30.0, 224.0, 0.0, 0.0, 0.0, 1.6953697635519326E9, 0.0, 2023-09-22 10:02:43.551
246.0, 3297.6199147248167, 187500.0, 187500.0, 187500.0, 187500.0, 187500.0, 187500.0, 187500.0, 0.034, 0.158, 0.988, 192.0, 0.0, 0.0, 0.0, 0.0, 0.0, 0.0, 0.0, 0.0, 0.0, 1.6953697635519571E9, 0.0, 2023-09-22 10:02:43.551
247.0, 3298.089301358378, 187500.0, 187500.0, 187500.0, 187500.0, 187500.0, 187500.0, 187500.0, 0.034, 0.158, 0.988, 192.0, 0.0, 0.0, 0.0, 0.0, 0.0, 0.0, 0.0, 0.0, 0.0, 1.6953697635519817E9, 0.0, 2023-09-22 10:02:43.551
248.0, 3332.1757116527215, 187500.0, 187500.0, 187500.0, 187500.0, 187500.0, 187500.0, 187500.0, 0.034, 0.158, 0.988, 192.0, 0.0, 0.0, 0.0, 0.0, 0.0, 0.0, 0.0, 0.0, 0.0, 1.6953697635520055E9, 0.0, 2023-09-22 10:02:43.552
249.0, 3350.3923833837966, 187500.0, 187500.0, 187500.0, 187500.0, 187500.0, 187500.0, 187500.0, 0.034, 0.158, 0.988, 192.0, 0.0, 0.0, 0.0, 0.0, 0.0, 0.0, 0.0, 0.0, 0.0, 1.6953697635520294E9, 0.0, 2023-09-22 10:02:43.552
250.0, 3359.8918747773023, 187500.0, 187500.0, 187500.0, 187500.0, 187500.0, 187500.0, 187500.0, 0.034, 0.158, 0.988, 192.0, 0.0, 0.0, 0.0, 0.0, 0.0, 0.0, 0.0, 0.0, 0.0, 1.6953697635520532E9, 0.0, 2023-09-22 10:02:43.552
251.0, 3359.221322443643, 187500.0, 187500.0, 187500.0, 187500.0, 187500.0, 187500.0, 187500.0, 0.034, 0.158, 0.988, 192.0, 0.0, 0.0, 0.0, 0.0, 0.0, 0.0, 0.0, 0.0, 0.0, 1.695369763552076E9, 0.0, 2023-09-22 10:02:43.552
252.0, 3326.096037160878, 187500.0, 187500.0, 187500.0, 187500.0, 187500.0, 187500.0, 187500.0, 0.034, 0.158, 0.988, 192.0, 0.0, 0.0, 0.0, 0.0, 0.0, 0.0, 0.0, 0.0, 0.0, 1.6953697635521E9, 0.0, 2023-09-22 10:02:43.552
253.0, 3307.0076473960457, 187500.0, 187500.0, 187500.0, 187500.0, 187500.0, 187500.0, 187500.0, 0.034, 0.158, 0.988, 192.0, 0.0, 0.0, 0.0, 0.0, 0.0, 0.0, 0.0, 0.0, 0.0, 1.6953697635521228E9, 0.0, 2023-09-22 10:02:43.552
254.0, 3297.709321702638, 187500.0, 187500.0, 187500.0, 187500.0, 187500.0, 187500.0, 187500.0, 0.034, 0.158, 0.988, 192.0, 0.0, 0.0, 0.0, 0.0, 0.0, 0.0, 0.0, 0.0, 0.0, 1.6953697635521455E9, 0.0, 2023-09-22 10:02:43.552
255.0, 3297.9775426361016, 187500.0, 187500.0, 187500.0, 187500.0, 187500.0, 187500.0, 187500.0, 0.036000000000000004, 0.162, 0.99, 192.0, 1.0, 32.0, 5.0, 16.0, 30.0, 240.0, 0.0, 0.0, 0.0, 1.6953697635521677E9, 0.0, 2023-09-22 10:02:43.552
0.0, 3331.996897697079, 187500.0, 187500.0, 187500.0, 187500.0, 187500.0, 187500.0, 187500.0, 0.036000000000000004, 0.162, 0.99, 192.0, 0.0, 0.0, 0.0, 0.0, 0.0, 0.0, 0.0, 0.0, 0.0, 1.695369763552189E9, 0.0, 2023-09-22 10:02:43.552
1.0, 3351.286453162009, 187500.0, 187500.0, 187500.0, 187500.0, 187500.0, 187500.0, 187500.0, 0.036000000000000004, 0.162, 0.99, 192.0, 0.0, 0.0, 0.0, 0.0, 0.0, 0.0, 0.0, 0.0, 0.0, 1.6953697635522103E9, 0.0, 2023-09-22 10:02:43.552
2.0, 3360.584778855417, 187500.0, 187500.0, 187500.0, 187500.0, 187500.0, 187500.0, 187500.0, 0.036000000000000004, 0.162, 0.99, 192.0, 0.0, 0.0, 0.0, 0.0, 0.0, 0.0, 0.0, 0.0, 0.0, 1.695369763552232E9, 0.0, 2023-09-22 10:02:43.552
3.0, 3359.33308116592, 187500.0, 187500.0, 187500.0, 187500.0, 187500.0, 187500.0, 187500.0, 0.036000000000000004, 0.162, 0.99, 192.0, 0.0, 0.0, 0.0, 0.0, 0.0, 0.0, 0.0, 0.0, 0.0, 1.6953697635522528E9, 0.0, 2023-09-22 10:02:43.552
4.0, 3325.1125604048448, 187500.0, 187500.0, 187500.0, 187500.0, 187500.0, 187500.0, 187500.0, 0.036000000000000004, 0.162, 0.99, 192.0, 0.0, 0.0, 0.0, 0.0, 0.0, 0.0, 0.0, 0.0, 0.0, 1.6953697635522747E9, 0.0, 2023-09-22 10:02:43.552
5.0, 3306.851185184859, 187500.0, 187500.0, 187500.0, 187500.0, 187500.0, 187500.0, 187500.0, 0.036000000000000004, 0.162, 0.99, 192.0, 0.0, 0.0, 0.0, 0.0, 0.0, 0.0, 0.0, 0.0, 0.0, 1.695369763552298E9, 0.0, 2023-09-22 10:02:43.552
6.0, 3297.8657839138255, 187500.0, 187500.0, 187500.0, 187500.0, 187500.0, 187500.0, 187500.0, 0.036000000000000004, 0.162, 0.99, 192.0, 0.0, 0.0, 0.0, 0.0, 0.0, 0.0, 0.0, 0.0, 0.0, 1.69536976355232E9, 0.0, 2023-09-22 10:02:43.552
7.0, 3298.5363362474845, 187500.0, 187500.0, 187500.0, 187500.0, 187500.0, 187500.0, 187500.0, 0.036000000000000004, 0.162, 0.99, 192.0, 0.0, 0.0, 0.0, 0.0, 0.0, 0.0, 0.0, 0.0, 0.0, 1.695369763552342E9, 0.0, 2023-09-22 10:02:43.552
8.0, 3331.7286767636156, 187500.0, 187500.0, 187500.0, 187500.0, 187500.0, 187500.0, 187500.0, 0.036000000000000004, 0.162, 0.99, 192.0, 0.0, 0.0, 0.0, 0.0, 0.0, 0.0, 0.0, 0.0, 0.0, 1.6953697635523655E9, 0.0, 2023-09-22 10:02:43.552
9.0, 3350.1465141947883, 187500.0, 187500.0, 187500.0, 187500.0, 187500.0, 187500.0, 187500.0, 0.034, 0.16, 0.99, 192.0, 1.0, 16.0, 5.0, 0.0, 30.0, 240.0, 0.0, 0.0, 0.0, 1.6953697635523877E9, 0.0, 2023-09-22 10:02:43.552
10.0, 3360.3389096664087, 187500.0, 187500.0, 187500.0, 187500.0, 187500.0, 187500.0, 187500.0, 0.034, 0.16, 0.99, 192.0, 0.0, 0.0, 0.0, 0.0, 0.0, 0.0, 0.0, 0.0, 0.0, 1.6953697635524113E9, 0.0, 2023-09-22 10:02:43.552
11.0, 3359.668357332749, 187500.0, 187500.0, 187500.0, 187500.0, 187500.0, 187500.0, 187500.0, 0.034, 0.16, 0.99, 192.0, 0.0, 0.0, 0.0, 0.0, 0.0, 0.0, 0.0, 0.0, 0.0, 1.695369763552432E9, 0.0, 2023-09-22 10:02:43.552
12.0, 3325.380781338308, 187500.0, 187500.0, 187500.0, 187500.0, 187500.0, 187500.0, 187500.0, 0.034, 0.16, 0.99, 192.0, 0.0, 0.0, 0.0, 0.0, 0.0, 0.0, 0.0, 0.0, 0.0, 1.6953697635524535E9, 0.0, 2023-09-22 10:02:43.552
13.0, 3306.7841299514926, 187500.0, 187500.0, 187500.0, 187500.0, 187500.0, 187500.0, 187500.0, 0.034, 0.16, 0.99, 192.0, 0.0, 0.0, 0.0, 0.0, 0.0, 0.0, 0.0, 0.0, 0.0, 1.6953697635524743E9, 0.0, 2023-09-22 10:02:43.552
14.0, 3297.5081560025405, 187500.0, 187500.0, 187500.0, 187500.0, 187500.0, 187500.0, 187500.0, 0.034, 0.16, 0.99, 192.0, 0.0, 0.0, 0.0, 0.0, 0.0, 0.0, 0.0, 0.0, 0.0, 1.695369763552498E9, 0.0, 2023-09-22 10:02:43.552
15.0, 3298.5810397363953, 187500.0, 187500.0, 187500.0, 187500.0, 187500.0, 187500.0, 187500.0, 0.034, 0.16, 0.99, 192.0, 0.0, 0.0, 0.0, 0.0, 0.0, 0.0, 0.0, 0.0, 0.0, 1.6953697635525193E9, 0.0, 2023-09-22 10:02:43.552
16.0, 3332.1757116527215, 187500.0, 187500.0, 187500.0, 187500.0, 187500.0, 187500.0, 187500.0, 0.034, 0.16, 0.99, 192.0, 0.0, 0.0, 0.0, 0.0, 0.0, 0.0, 0.0, 0.0, 0.0, 1.6953697635525427E9, 0.0, 2023-09-22 10:02:43.552
17.0, 3351.197046184188, 187500.0, 187500.0, 187500.0, 187500.0, 187500.0, 187500.0, 187500.0, 0.034, 0.16, 0.99, 192.0, 0.0, 0.0, 0.0, 0.0, 0.0, 0.0, 0.0, 0.0, 0.0, 1.6953697635525675E9, 0.0, 2023-09-22 10:02:43.552
18.0, 3360.1153922218555, 187500.0, 187500.0, 187500.0, 187500.0, 187500.0, 187500.0, 187500.0, 0.034, 0.16, 0.99, 192.0, 0.0, 0.0, 0.0, 0.0, 0.0, 0.0, 0.0, 0.0, 0.0, 1.6953697635525925E9, 0.0, 2023-09-22 10:02:43.552
19.0, 3359.064860232456, 187500.0, 187500.0, 187500.0, 187500.0, 187500.0, 187500.0, 187500.0, 0.036000000000000004, 0.158, 0.992, 192.0, 1.0, 32.0, 4.0, 240.0, 31.0, 0.0, 0.0, 0.0, 0.0, 1.6953697635526152E9, 0.0, 2023-09-22 10:02:43.552
20.0, 3325.4031330827634, 187500.0, 187500.0, 187500.0, 187500.0, 187500.0, 187500.0, 187500.0, 0.036000000000000004, 0.158, 0.992, 192.0, 0.0, 0.0, 0.0, 0.0, 0.0, 0.0, 0.0, 0.0, 0.0, 1.69536976355264E9, 0.0, 2023-09-22 10:02:43.552
21.0, 3307.0747026294116, 187500.0, 187500.0, 187500.0, 187500.0, 187500.0, 187500.0, 187500.0, 0.036000000000000004, 0.158, 0.992, 192.0, 0.0, 0.0, 0.0, 0.0, 0.0, 0.0, 0.0, 0.0, 0.0, 1.6953697635527203E9, 0.0, 2023-09-22 10:02:43.552
22.0, 3297.3740455358084, 187500.0, 187500.0, 187500.0, 187500.0, 187500.0, 187500.0, 187500.0, 0.036000000000000004, 0.158, 0.992, 192.0, 0.0, 0.0, 0.0, 0.0, 0.0, 0.0, 0.0, 0.0, 0.0, 1.6953697635527449E9, 0.0, 2023-09-22 10:02:43.552
23.0, 3297.5752112359064, 187500.0, 187500.0, 187500.0, 187500.0, 187500.0, 187500.0, 187500.0, 0.036000000000000004, 0.158, 0.992, 192.0, 0.0, 0.0, 0.0, 0.0, 0.0, 0.0, 0.0, 0.0, 0.0, 1.6953697635527687E9, 0.0, 2023-09-22 10:02:43.552
24.0, 3331.7510285080707, 187500.0, 187500.0, 187500.0, 187500.0, 187500.0, 187500.0, 187500.0, 0.036000000000000004, 0.158, 0.992, 192.0, 0.0, 0.0, 0.0, 0.0, 0.0, 0.0, 0.0, 0.0, 0.0, 1.6953697635527923E9, 0.0, 2023-09-22 10:02:43.552
25.0, 3351.1076392063665, 187500.0, 187500.0, 187500.0, 187500.0, 187500.0, 187500.0, 187500.0, 0.036000000000000004, 0.158, 0.992, 192.0, 0.0, 0.0, 0.0, 0.0, 0.0, 0.0, 0.0, 0.0, 0.0, 1.6953697635528169E9, 0.0, 2023-09-22 10:02:43.552
26.0, 3360.607130599872, 187500.0, 187500.0, 187500.0, 187500.0, 187500.0, 187500.0, 187500.0, 0.036000000000000004, 0.158, 0.992, 192.0, 0.0, 0.0, 0.0, 0.0, 0.0, 0.0, 0.0, 0.0, 0.0, 1.6953697635528407E9, 0.0, 2023-09-22 10:02:43.552
27.0, 3359.5118951215622, 187500.0, 187500.0, 187500.0, 187500.0, 187500.0, 187500.0, 187500.0, 0.036000000000000004, 0.158, 0.992, 192.0, 0.0, 0.0, 0.0, 0.0, 0.0, 0.0, 0.0, 0.0, 0.0, 1.6953697635528677E9, 0.0, 2023-09-22 10:02:43.552
28.0, 3324.844339471381, 187500.0, 187500.0, 187500.0, 187500.0, 187500.0, 187500.0, 187500.0, 0.036000000000000004, 0.158, 0.992, 192.0, 0.0, 0.0, 0.0, 0.0, 0.0, 0.0, 0.0, 0.0, 0.0, 1.6953697635528953E9, 0.0, 2023-09-22 10:02:43.552
29.0, 3306.582964251395, 187500.0, 187500.0, 187500.0, 187500.0, 187500.0, 187500.0, 187500.0, 0.036000000000000004, 0.158, 0.99, 192.0, 1.0, 32.0, 4.0, 240.0, 30.0, 240.0, 0.0, 0.0, 0.0, 1.695369763552925E9, 0.0, 2023-09-22 10:02:43.552
30.0, 3297.0164176245235, 187500.0, 187500.0, 187500.0, 187500.0, 187500.0, 187500.0, 187500.0, 0.036000000000000004, 0.158, 0.99, 192.0, 0.0, 0.0, 0.0, 0.0, 0.0, 0.0, 0.0, 0.0, 0.0, 1.695369763552956E9, 0.0, 2023-09-22 10:02:43.552
31.0, 3298.2681153140206, 187500.0, 187500.0, 187500.0, 187500.0, 187500.0, 187500.0, 187500.0, 0.036000000000000004, 0.158, 0.99, 192.0, 0.0, 0.0, 0.0, 0.0, 0.0, 0.0, 0.0, 0.0, 0.0, 1.6953697635529852E9, 0.0, 2023-09-22 10:02:43.552
32.0, 3332.0416011859897, 187500.0, 187500.0, 187500.0, 187500.0, 187500.0, 187500.0, 187500.0, 0.036000000000000004, 0.158, 0.99, 192.0, 0.0, 0.0, 0.0, 0.0, 0.0, 0.0, 0.0, 0.0, 0.0, 1.6953697635530102E9, 0.0, 2023-09-22 10:02:43.553
33.0, 3350.213569428154, 187500.0, 187500.0, 187500.0, 187500.0, 187500.0, 187500.0, 187500.0, 0.036000000000000004, 0.158, 0.99, 192.0, 0.0, 0.0, 0.0, 0.0, 0.0, 0.0, 0.0, 0.0, 0.0, 1.6953697635530329E9, 0.0, 2023-09-22 10:02:43.553
34.0, 3359.5342468660174, 187500.0, 187500.0, 187500.0, 187500.0, 187500.0, 187500.0, 187500.0, 0.036000000000000004, 0.158, 0.99, 192.0, 0.0, 0.0, 0.0, 0.0, 0.0, 0.0, 0.0, 0.0, 0.0, 1.6953697635530565E9, 0.0, 2023-09-22 10:02:43.553
35.0, 3358.8189910434476, 187500.0, 187500.0, 187500.0, 187500.0, 187500.0, 187500.0, 187500.0, 0.036000000000000004, 0.158, 0.99, 192.0, 0.0, 0.0, 0.0, 0.0, 0.0, 0.0, 0.0, 0.0, 0.0, 1.695369763553078E9, 0.0, 2023-09-22 10:02:43.553
36.0, 3325.2019673826658, 187500.0, 187500.0, 187500.0, 187500.0, 187500.0, 187500.0, 187500.0, 0.036000000000000004, 0.158, 0.99, 192.0, 0.0, 0.0, 0.0, 0.0, 0.0, 0.0, 0.0, 0.0, 0.0, 1.6953697635531008E9, 0.0, 2023-09-22 10:02:43.553
37.0, 3306.962943907135, 187500.0, 187500.0, 187500.0, 187500.0, 187500.0, 187500.0, 187500.0, 0.036000000000000004, 0.158, 0.99, 192.0, 0.0, 0.0, 0.0, 0.0, 0.0, 0.0, 0.0, 0.0, 0.0, 1.6953697635531254E9, 0.0, 2023-09-22 10:02:43.553
38.0, 3297.105824602345, 187500.0, 187500.0, 187500.0, 187500.0, 187500.0, 187500.0, 187500.0, 0.036000000000000004, 0.158, 0.99, 192.0, 0.0, 0.0, 0.0, 0.0, 0.0, 0.0, 0.0, 0.0, 0.0, 1.6953697635531476E9, 0.0, 2023-09-22 10:02:43.553
39.0, 3297.84343216937, 187500.0, 187500.0, 187500.0, 187500.0, 187500.0, 187500.0, 187500.0, 0.036000000000000004, 0.158, 0.998, 192.0, 1.0, 32.0, 4.0, 240.0, 31.0, 48.0, 0.0, 0.0, 0.0, 1.6953697635531704E9, 0.0, 2023-09-22 10:02:43.553
40.0, 3332.1086564193556, 187500.0, 187500.0, 187500.0, 187500.0, 187500.0, 187500.0, 187500.0, 0.036000000000000004, 0.158, 0.998, 192.0, 0.0, 0.0, 0.0, 0.0, 0.0, 0.0, 0.0, 0.0, 0.0, 1.6953697635531967E9, 0.0, 2023-09-22 10:02:43.553
41.0, 3351.152342695277, 187500.0, 187500.0, 187500.0, 187500.0, 187500.0, 187500.0, 187500.0, 0.036000000000000004, 0.158, 0.998, 192.0, 0.0, 0.0, 0.0, 0.0, 0.0, 0.0, 0.0, 0.0, 0.0, 1.6953697635532193E9, 0.0, 2023-09-22 10:02:43.553
42.0, 3360.4283166442297, 187500.0, 187500.0, 187500.0, 187500.0, 187500.0, 187500.0, 187500.0, 0.036000000000000004, 0.158, 0.998, 192.0, 0.0, 0.0, 0.0, 0.0, 0.0, 0.0, 0.0, 0.0, 0.0, 1.6953697635532432E9, 0.0, 2023-09-22 10:02:43.553
43.0, 3359.2436741880983, 187500.0, 187500.0, 187500.0, 187500.0, 187500.0, 187500.0, 187500.0, 0.036000000000000004, 0.158, 0.998, 192.0, 0.0, 0.0, 0.0, 0.0, 0.0, 0.0, 0.0, 0.0, 0.0, 1.6953697635532658E9, 0.0, 2023-09-22 10:02:43.553
44.0, 3325.291374360487, 187500.0, 187500.0, 187500.0, 187500.0, 187500.0, 187500.0, 187500.0, 0.036000000000000004, 0.158, 0.998, 192.0, 0.0, 0.0, 0.0, 0.0, 0.0, 0.0, 0.0, 0.0, 0.0, 1.695369763553288E9, 0.0, 2023-09-22 10:02:43.553
45.0, 3307.2758683295096, 187500.0, 187500.0, 187500.0, 187500.0, 187500.0, 187500.0, 187500.0, 0.036000000000000004, 0.158, 0.998, 192.0, 0.0, 0.0, 0.0, 0.0, 0.0, 0.0, 0.0, 0.0, 0.0, 1.6953697635533113E9, 0.0, 2023-09-22 10:02:43.553
46.0, 3297.9775426361016, 187500.0, 187500.0, 187500.0, 187500.0, 187500.0, 187500.0, 187500.0, 0.036000000000000004, 0.158, 0.998, 192.0, 0.0, 0.0, 0.0, 0.0, 0.0, 0.0, 0.0, 0.0, 0.0, 1.6953697635533369E9, 0.0, 2023-09-22 10:02:43.553
47.0, 3298.7598536920377, 187500.0, 187500.0, 187500.0, 187500.0, 187500.0, 187500.0, 187500.0, 0.036000000000000004, 0.158, 0.998, 192.0, 0.0, 0.0, 0.0, 0.0, 0.0, 0.0, 0.0, 0.0, 0.0, 1.6953697635533607E9, 0.0, 2023-09-22 10:02:43.553
48.0, 3332.3098221194537, 187500.0, 187500.0, 187500.0, 187500.0, 187500.0, 187500.0, 187500.0, 0.036000000000000004, 0.158, 0.998, 192.0, 0.0, 0.0, 0.0, 0.0, 0.0, 0.0, 0.0, 0.0, 0.0, 1.695369763553384E9, 0.0, 2023-09-22 10:02:43.553
49.0, 3350.9958804840903, 187500.0, 187500.0, 187500.0, 187500.0, 187500.0, 187500.0, 187500.0, 0.038, 0.158, 0.99, 192.0, 1.0, 48.0, 4.0, 240.0, 30.0, 240.0, 0.0, 0.0, 0.0, 1.6953697635534072E9, 0.0, 2023-09-22 10:02:43.553
50.0, 3360.7188893221487, 187500.0, 187500.0, 187500.0, 187500.0, 187500.0, 187500.0, 187500.0, 0.038, 0.158, 0.99, 192.0, 0.0, 0.0, 0.0, 0.0, 0.0, 0.0, 0.0, 0.0, 0.0, 1.695369763553431E9, 0.0, 2023-09-22 10:02:43.553
51.0, 3359.8248195439364, 187500.0, 187500.0, 187500.0, 187500.0, 187500.0, 187500.0, 187500.0, 0.038, 0.158, 0.99, 192.0, 0.0, 0.0, 0.0, 0.0, 0.0, 0.0, 0.0, 0.0, 0.0, 1.6953697635536273E9, 0.0, 2023-09-22 10:02:43.553
52.0, 3326.2301476276098, 187500.0, 187500.0, 187500.0, 187500.0, 187500.0, 187500.0, 187500.0, 0.038, 0.158, 0.99, 192.0, 0.0, 0.0, 0.0, 0.0, 0.0, 0.0, 0.0, 0.0, 0.0, 1.6953697635536916E9, 0.0, 2023-09-22 10:02:43.553
53.0, 3306.806481695948, 187500.0, 187500.0, 187500.0, 187500.0, 187500.0, 187500.0, 187500.0, 0.038, 0.158, 0.99, 192.0, 0.0, 0.0, 0.0, 0.0, 0.0, 0.0, 0.0, 0.0, 0.0, 1.6953697635537183E9, 0.0, 2023-09-22 10:02:43.553
54.0, 3297.2399350690766, 187500.0, 187500.0, 187500.0, 187500.0, 187500.0, 187500.0, 187500.0, 0.038, 0.158, 0.99, 192.0, 0.0, 0.0, 0.0, 0.0, 0.0, 0.0, 0.0, 0.0, 0.0, 1.6953697635537455E9, 0.0, 2023-09-22 10:02:43.553
55.0, 3298.491632758574, 187500.0, 187500.0, 187500.0, 187500.0, 187500.0, 187500.0, 187500.0, 0.038, 0.158, 0.99, 192.0, 0.0, 0.0, 0.0, 0.0, 0.0, 0.0, 0.0, 0.0, 0.0, 1.6953697635537713E9, 0.0, 2023-09-22 10:02:43.553
56.0, 3332.265118630543, 187500.0, 187500.0, 187500.0, 187500.0, 187500.0, 187500.0, 187500.0, 0.038, 0.158, 0.99, 192.0, 0.0, 0.0, 0.0, 0.0, 0.0, 0.0, 0.0, 0.0, 0.0, 1.6953697635537965E9, 0.0, 2023-09-22 10:02:43.553
57.0, 3350.839418272903, 187500.0, 187500.0, 187500.0, 187500.0, 187500.0, 187500.0, 187500.0, 0.038, 0.158, 0.99, 192.0, 0.0, 0.0, 0.0, 0.0, 0.0, 0.0, 0.0, 0.0, 0.0, 1.6953697635538225E9, 0.0, 2023-09-22 10:02:43.553
58.0, 3360.1377439663106, 187500.0, 187500.0, 187500.0, 187500.0, 187500.0, 187500.0, 187500.0, 0.038, 0.158, 0.99, 192.0, 0.0, 0.0, 0.0, 0.0, 0.0, 0.0, 0.0, 0.0, 0.0, 1.6953697635538464E9, 0.0, 2023-09-22 10:02:43.553
59.0, 3358.7295840656266, 187500.0, 187500.0, 187500.0, 187500.0, 187500.0, 187500.0, 187500.0, 0.038, 0.162, 0.996, 192.0, 1.0, 48.0, 5.0, 16.0, 31.0, 32.0, 0.0, 0.0, 0.0, 1.6953697635538697E9, 0.0, 2023-09-22 10:02:43.553
60.0, 3325.4031330827634, 187500.0, 187500.0, 187500.0, 187500.0, 187500.0, 187500.0, 187500.0, 0.038, 0.162, 0.996, 192.0, 0.0, 0.0, 0.0, 0.0, 0.0, 0.0, 0.0, 0.0, 0.0, 1.6953697635538933E9, 0.0, 2023-09-22 10:02:43.553
61.0, 3307.7676067075263, 187500.0, 187500.0, 187500.0, 187500.0, 187500.0, 187500.0, 187500.0, 0.038, 0.162, 0.996, 192.0, 0.0, 0.0, 0.0, 0.0, 0.0, 0.0, 0.0, 0.0, 0.0, 1.6953697635539165E9, 0.0, 2023-09-22 10:02:43.553
62.0, 3297.84343216937, 187500.0, 187500.0, 187500.0, 187500.0, 187500.0, 187500.0, 187500.0, 0.038, 0.162, 0.996, 192.0, 0.0, 0.0, 0.0, 0.0, 0.0, 0.0, 0.0, 0.0, 0.0, 1.6953697635539398E9, 0.0, 2023-09-22 10:02:43.553
63.0, 3298.357522291842, 187500.0, 187500.0, 187500.0, 187500.0, 187500.0, 187500.0, 187500.0, 0.038, 0.162, 0.996, 192.0, 0.0, 0.0, 0.0, 0.0, 0.0, 0.0, 0.0, 0.0, 0.0, 1.695369763553966E9, 0.0, 2023-09-22 10:02:43.553
64.0, 3332.063952930445, 187500.0, 187500.0, 187500.0, 187500.0, 187500.0, 187500.0, 187500.0, 0.038, 0.162, 0.996, 192.0, 0.0, 0.0, 0.0, 0.0, 0.0, 0.0, 0.0, 0.0, 0.0, 1.6953697635539916E9, 0.0, 2023-09-22 10:02:43.553
65.0, 3350.7276595506264, 187500.0, 187500.0, 187500.0, 187500.0, 187500.0, 187500.0, 187500.0, 0.038, 0.162, 0.996, 192.0, 0.0, 0.0, 0.0, 0.0, 0.0, 0.0, 0.0, 0.0, 0.0, 1.6953697635540173E9, 0.0, 2023-09-22 10:02:43.554
66.0, 3360.6294823443277, 187500.0, 187500.0, 187500.0, 187500.0, 187500.0, 187500.0, 187500.0, 0.038, 0.162, 0.996, 192.0, 0.0, 0.0, 0.0, 0.0, 0.0, 0.0, 0.0, 0.0, 0.0, 1.695369763554042E9, 0.0, 2023-09-22 10:02:43.554
67.0, 3359.8024677994813, 187500.0, 187500.0, 187500.0, 187500.0, 187500.0, 187500.0, 187500.0, 0.038, 0.162, 0.996, 192.0, 0.0, 0.0, 0.0, 0.0, 0.0, 0.0, 0.0, 0.0, 0.0, 1.6953697635540795E9, 0.0, 2023-09-22 10:02:43.554
68.0, 3325.2466708715765, 187500.0, 187500.0, 187500.0, 187500.0, 187500.0, 187500.0, 187500.0, 0.036000000000000004, 0.158, 0.998, 192.0, 1.0, 32.0, 4.0, 240.0, 31.0, 48.0, 0.0, 0.0, 0.0, 1.6953697635541492E9, 0.0, 2023-09-22 10:02:43.554
69.0, 3306.202984595655, 187500.0, 187500.0, 187500.0, 187500.0, 187500.0, 187500.0, 187500.0, 0.036000000000000004, 0.158, 0.998, 192.0, 0.0, 0.0, 0.0, 0.0, 0.0, 0.0, 0.0, 0.0, 0.0, 1.6953697635544775E9, 0.0, 2023-09-22 10:02:43.554
70.0, 3297.686969958183, 187500.0, 187500.0, 187500.0, 187500.0, 187500.0, 187500.0, 187500.0, 0.036000000000000004, 0.158, 0.998, 192.0, 0.0, 0.0, 0.0, 0.0, 0.0, 0.0, 0.0, 0.0, 0.0, 1.6953697635545366E9, 0.0, 2023-09-22 10:02:43.554
71.0, 3298.424577525208, 187500.0, 187500.0, 187500.0, 187500.0, 187500.0, 187500.0, 187500.0, 0.036000000000000004, 0.158, 0.998, 192.0, 0.0, 0.0, 0.0, 0.0, 0.0, 0.0, 0.0, 0.0, 0.0, 1.6953697635545692E9, 0.0, 2023-09-22 10:02:43.554
72.0, 3332.1757116527215, 187500.0, 187500.0, 187500.0, 187500.0, 187500.0, 187500.0, 187500.0, 0.036000000000000004, 0.158, 0.998, 192.0, 0.0, 0.0, 0.0, 0.0, 0.0, 0.0, 0.0, 0.0, 0.0, 1.6953697635545995E9, 0.0, 2023-09-22 10:02:43.554
73.0, 3350.325328150431, 187500.0, 187500.0, 187500.0, 187500.0, 187500.0, 187500.0, 187500.0, 0.036000000000000004, 0.158, 0.998, 192.0, 0.0, 0.0, 0.0, 0.0, 0.0, 0.0, 0.0, 0.0, 0.0, 1.695369763554636E9, 0.0, 2023-09-22 10:02:43.554
74.0, 3359.7577643105706, 187500.0, 187500.0, 187500.0, 187500.0, 187500.0, 187500.0, 187500.0, 0.036000000000000004, 0.158, 0.998, 192.0, 0.0, 0.0, 0.0, 0.0, 0.0, 0.0, 0.0, 0.0, 0.0, 1.6953697635547223E9, 0.0, 2023-09-22 10:02:43.554
75.0, 3359.5342468660174, 187500.0, 187500.0, 187500.0, 187500.0, 187500.0, 187500.0, 187500.0, 0.036000000000000004, 0.158, 0.998, 192.0, 0.0, 0.0, 0.0, 0.0, 0.0, 0.0, 0.0, 0.0, 0.0, 1.6953697635547504E9, 0.0, 2023-09-22 10:02:43.554
76.0, 3326.163092394244, 187500.0, 187500.0, 187500.0, 187500.0, 187500.0, 187500.0, 187500.0, 0.036000000000000004, 0.158, 0.998, 192.0, 0.0, 0.0, 0.0, 0.0, 0.0, 0.0, 0.0, 0.0, 0.0, 1.695369763554783E9, 0.0, 2023-09-22 10:02:43.554
77.0, 3307.9464206631687, 187500.0, 187500.0, 187500.0, 187500.0, 187500.0, 187500.0, 187500.0, 0.036000000000000004, 0.158, 0.998, 192.0, 0.0, 0.0, 0.0, 0.0, 0.0, 0.0, 0.0, 0.0, 0.0, 1.6953697635548258E9, 0.0, 2023-09-22 10:02:43.554
78.0, 3297.8657839138255, 187500.0, 187500.0, 187500.0, 187500.0, 187500.0, 187500.0, 187500.0, 0.034, 0.158, 0.99, 192.0, 1.0, 16.0, 4.0, 240.0, 30.0, 240.0, 0.0, 0.0, 0.0, 1.6953697635548594E9, 0.0, 2023-09-22 10:02:43.554
79.0, 3298.290467058476, 187500.0, 187500.0, 187500.0, 187500.0, 187500.0, 187500.0, 187500.0, 0.034, 0.158, 0.99, 192.0, 0.0, 0.0, 0.0, 0.0, 0.0, 0.0, 0.0, 0.0, 0.0, 1.695369763554892E9, 0.0, 2023-09-22 10:02:43.554
80.0, 3332.332173863909, 187500.0, 187500.0, 187500.0, 187500.0, 187500.0, 187500.0, 187500.0, 0.034, 0.158, 0.99, 192.0, 0.0, 0.0, 0.0, 0.0, 0.0, 0.0, 0.0, 0.0, 0.0, 1.6953697635549352E9, 0.0, 2023-09-22 10:02:43.554
81.0, 3351.5993775843835, 187500.0, 187500.0, 187500.0, 187500.0, 187500.0, 187500.0, 187500.0, 0.034, 0.158, 0.99, 192.0, 0.0, 0.0, 0.0, 0.0, 0.0, 0.0, 0.0, 0.0, 0.0, 1.6953697635549774E9, 0.0, 2023-09-22 10:02:43.554
82.0, 3360.8306480444253, 187500.0, 187500.0, 187500.0, 187500.0, 187500.0, 187500.0, 187500.0, 0.034, 0.158, 0.99, 192.0, 0.0, 0.0, 0.0, 0.0, 0.0, 0.0, 0.0, 0.0, 0.0, 1.695369763555189E9, 0.0, 2023-09-22 10:02:43.555
83.0, 3359.266025932554, 187500.0, 187500.0, 187500.0, 187500.0, 187500.0, 187500.0, 187500.0, 0.034, 0.158, 0.99, 192.0, 0.0, 0.0, 0.0, 0.0, 0.0, 0.0, 0.0, 0.0, 0.0, 1.6953697635552273E9, 0.0, 2023-09-22 10:02:43.555
84.0, 3325.067856915934, 187500.0, 187500.0, 187500.0, 187500.0, 187500.0, 187500.0, 187500.0, 0.034, 0.158, 0.99, 192.0, 0.0, 0.0, 0.0, 0.0, 0.0, 0.0, 0.0, 0.0, 0.0, 1.695369763555251E9, 0.0, 2023-09-22 10:02:43.555
85.0, 3307.4323305406965, 187500.0, 187500.0, 187500.0, 187500.0, 187500.0, 187500.0, 187500.0, 0.034, 0.158, 0.99, 192.0, 0.0, 0.0, 0.0, 0.0, 0.0, 0.0, 0.0, 0.0, 0.0, 1.695369763555273E9, 0.0, 2023-09-22 10:02:43.555
86.0, 3298.134004847289, 187500.0, 187500.0, 187500.0, 187500.0, 187500.0, 187500.0, 187500.0, 0.034, 0.158, 0.99, 192.0, 0.0, 0.0, 0.0, 0.0, 0.0, 0.0, 0.0, 0.0, 0.0, 1.6953697635553005E9, 0.0, 2023-09-22 10:02:43.555
87.0, 3298.715150203127, 187500.0, 187500.0, 187500.0, 187500.0, 187500.0, 187500.0, 187500.0, 0.034, 0.158, 0.99, 192.0, 0.0, 0.0, 0.0, 0.0, 0.0, 0.0, 0.0, 0.0, 0.0, 1.6953697635553143E9, 0.0, 2023-09-22 10:02:43.555
88.0, 3332.1757116527215, 187500.0, 187500.0, 187500.0, 187500.0, 187500.0, 187500.0, 187500.0, 0.034, 0.156, 0.99, 192.0, 1.0, 16.0, 4.0, 224.0, 30.0, 240.0, 0.0, 0.0, 0.0, 1.69536976355533E9, 0.0, 2023-09-22 10:02:43.555
89.0, 3351.0405839730006, 187500.0, 187500.0, 187500.0, 187500.0, 187500.0, 187500.0, 187500.0, 0.034, 0.156, 0.99, 192.0, 0.0, 0.0, 0.0, 0.0, 0.0, 0.0, 0.0, 0.0, 0.0, 1.6953697635553503E9, 0.0, 2023-09-22 10:02:43.555
90.0, 3361.4564968891736, 187500.0, 187500.0, 187500.0, 187500.0, 187500.0, 187500.0, 187500.0, 0.034, 0.156, 0.99, 192.0, 0.0, 0.0, 0.0, 0.0, 0.0, 0.0, 0.0, 0.0, 0.0, 1.6953697635553856E9, 0.0, 2023-09-22 10:02:43.555
91.0, 3360.271854433043, 187500.0, 187500.0, 187500.0, 187500.0, 187500.0, 187500.0, 187500.0, 0.034, 0.156, 0.99, 192.0, 0.0, 0.0, 0.0, 0.0, 0.0, 0.0, 0.0, 0.0, 0.0, 1.6953697635554068E9, 0.0, 2023-09-22 10:02:43.555
92.0, 3326.1407406497888, 187500.0, 187500.0, 187500.0, 187500.0, 187500.0, 187500.0, 187500.0, 0.034, 0.156, 0.99, 192.0, 0.0, 0.0, 0.0, 0.0, 0.0, 0.0, 0.0, 0.0, 0.0, 1.6953697635554264E9, 0.0, 2023-09-22 10:02:43.555
93.0, 3307.544089262973, 187500.0, 187500.0, 187500.0, 187500.0, 187500.0, 187500.0, 187500.0, 0.034, 0.156, 0.99, 192.0, 0.0, 0.0, 0.0, 0.0, 0.0, 0.0, 0.0, 0.0, 0.0, 1.695369763555446E9, 0.0, 2023-09-22 10:02:43.555
94.0, 3297.798728680459, 187500.0, 187500.0, 187500.0, 187500.0, 187500.0, 187500.0, 187500.0, 0.034, 0.156, 0.99, 192.0, 0.0, 0.0, 0.0, 0.0, 0.0, 0.0, 0.0, 0.0, 0.0, 1.6953697635554652E9, 0.0, 2023-09-22 10:02:43.555
95.0, 3298.648094969761, 187500.0, 187500.0, 187500.0, 187500.0, 187500.0, 187500.0, 187500.0, 0.034, 0.156, 0.99, 192.0, 0.0, 0.0, 0.0, 0.0, 0.0, 0.0, 0.0, 0.0, 0.0, 1.6953697635554864E9, 0.0, 2023-09-22 10:02:43.555
96.0, 3332.9803744531127, 187500.0, 187500.0, 187500.0, 187500.0, 187500.0, 187500.0, 187500.0, 0.034, 0.156, 0.99, 192.0, 0.0, 0.0, 0.0, 0.0, 0.0, 0.0, 0.0, 0.0, 0.0, 1.6953697635555127E9, 0.0, 2023-09-22 10:02:43.555
97.0, 3351.3982118842855, 187500.0, 187500.0, 187500.0, 187500.0, 187500.0, 187500.0, 187500.0, 0.034, 0.156, 0.99, 192.0, 0.0, 0.0, 0.0, 0.0, 0.0, 0.0, 0.0, 0.0, 0.0, 1.6953697635555408E9, 0.0, 2023-09-22 10:02:43.555
98.0, 3360.4953718775955, 187500.0, 187500.0, 187500.0, 187500.0, 187500.0, 187500.0, 187500.0, 0.034, 0.156, 0.99, 192.0, 1.0, 16.0, 4.0, 224.0, 30.0, 240.0, 0.0, 0.0, 0.0, 1.6953697635555596E9, 0.0, 2023-09-22 10:02:43.555
99.0, 3359.9812817551237, 187500.0, 187500.0, 187500.0, 187500.0, 187500.0, 187500.0, 187500.0, 0.034, 0.156, 0.99, 192.0, 0.0, 0.0, 0.0, 0.0, 0.0, 0.0, 0.0, 0.0, 0.0, 1.6953697635555987E9, 0.0, 2023-09-22 10:02:43.555
100.0, 3326.0513336719673, 187500.0, 187500.0, 187500.0, 187500.0, 187500.0, 187500.0, 187500.0, 0.034, 0.156, 0.99, 192.0, 0.0, 0.0, 0.0, 0.0, 0.0, 0.0, 0.0, 0.0, 0.0, 1.6953697635556295E9, 0.0, 2023-09-22 10:02:43.555
101.0, 3308.102882874356, 187500.0, 187500.0, 187500.0, 187500.0, 187500.0, 187500.0, 187500.0, 0.034, 0.156, 0.99, 192.0, 0.0, 0.0, 0.0, 0.0, 0.0, 0.0, 0.0, 0.0, 0.0, 1.6953697635556495E9, 0.0, 2023-09-22 10:02:43.555
102.0, 3298.6257432253055, 187500.0, 187500.0, 187500.0, 187500.0, 187500.0, 187500.0, 187500.0, 0.034, 0.156, 0.99, 192.0, 0.0, 0.0, 0.0, 0.0, 0.0, 0.0, 0.0, 0.0, 0.0, 1.6953697635556717E9, 0.0, 2023-09-22 10:02:43.555
103.0, 3298.5586879919397, 187500.0, 187500.0, 187500.0, 187500.0, 187500.0, 187500.0, 187500.0, 0.034, 0.156, 0.99, 192.0, 0.0, 0.0, 0.0, 0.0, 0.0, 0.0, 0.0, 0.0, 0.0, 1.6953697635556922E9, 0.0, 2023-09-22 10:02:43.555
104.0, 3331.5722145524282, 187500.0, 187500.0, 187500.0, 187500.0, 187500.0, 187500.0, 187500.0, 0.034, 0.156, 0.99, 192.0, 0.0, 0.0, 0.0, 0.0, 0.0, 0.0, 0.0, 0.0, 0.0, 1.6953697635557127E9, 0.0, 2023-09-22 10:02:43.555
105.0, 3350.7276595506264, 187500.0, 187500.0, 187500.0, 187500.0, 187500.0, 187500.0, 187500.0, 0.034, 0.156, 0.99, 192.0, 0.0, 0.0, 0.0, 0.0, 0.0, 0.0, 0.0, 0.0, 0.0, 1.695369763555734E9, 0.0, 2023-09-22 10:02:43.555
106.0, 3361.165924211255, 187500.0, 187500.0, 187500.0, 187500.0, 187500.0, 187500.0, 187500.0, 0.034, 0.156, 0.99, 192.0, 0.0, 0.0, 0.0, 0.0, 0.0, 0.0, 0.0, 0.0, 0.0, 1.695369764031153E9, 0.0, 2023-09-22 10:02:44.031
107.0, 3360.160095710766, 187500.0, 187500.0, 187500.0, 187500.0, 187500.0, 187500.0, 187500.0, 0.034, 0.156, 0.99, 192.0, 0.0, 0.0, 0.0, 0.0, 0.0, 0.0, 0.0, 0.0, 0.0, 1.695369764031273E9, 0.0, 2023-09-22 10:02:44.031
108.0, 3325.805464482959, 187500.0, 187500.0, 187500.0, 187500.0, 187500.0, 187500.0, 187500.0, 0.038, 0.162, 0.992, 192.0, 1.0, 48.0, 5.0, 16.0, 31.0, 0.0, 0.0, 0.0, 0.0, 1.6953697640313668E9, 0.0, 2023-09-22 10:02:44.031
109.0, 3307.678199729705, 187500.0, 187500.0, 187500.0, 187500.0, 187500.0, 187500.0, 187500.0, 0.038, 0.162, 0.992, 192.0, 0.0, 0.0, 0.0, 0.0, 0.0, 0.0, 0.0, 0.0, 0.0, 1.6953697640314193E9, 0.0, 2023-09-22 10:02:44.031
110.0, 3298.2457635695655, 187500.0, 187500.0, 187500.0, 187500.0, 187500.0, 187500.0, 187500.0, 0.038, 0.162, 0.992, 192.0, 0.0, 0.0, 0.0, 0.0, 0.0, 0.0, 0.0, 0.0, 0.0, 1.6953697640315173E9, 0.0, 2023-09-22 10:02:44.031
111.0, 3299.1174816033226, 187500.0, 187500.0, 187500.0, 187500.0, 187500.0, 187500.0, 187500.0, 0.038, 0.162, 0.992, 192.0, 0.0, 0.0, 0.0, 0.0, 0.0, 0.0, 0.0, 0.0, 0.0, 1.6953697640315993E9, 0.0, 2023-09-22 10:02:44.031
112.0, 3332.958022708657, 187500.0, 187500.0, 187500.0, 187500.0, 187500.0, 187500.0, 187500.0, 0.038, 0.162, 0.992, 192.0, 0.0, 0.0, 0.0, 0.0, 0.0, 0.0, 0.0, 0.0, 0.0, 1.69536976403163E9, 0.0, 2023-09-22 10:02:44.031
113.0, 3351.487618862107, 187500.0, 187500.0, 187500.0, 187500.0, 187500.0, 187500.0, 187500.0, 0.038, 0.162, 0.992, 192.0, 0.0, 0.0, 0.0, 0.0, 0.0, 0.0, 0.0, 0.0, 0.0, 1.6953697640316544E9, 0.0, 2023-09-22 10:02:44.031
114.0, 3361.0988689778887, 187500.0, 187500.0, 187500.0, 187500.0, 187500.0, 187500.0, 187500.0, 0.038, 0.162, 0.992, 192.0, 0.0, 0.0, 0.0, 0.0, 0.0, 0.0, 0.0, 0.0, 0.0, 1.6953697640316803E9, 0.0, 2023-09-22 10:02:44.031
115.0, 3360.160095710766, 187500.0, 187500.0, 187500.0, 187500.0, 187500.0, 187500.0, 187500.0, 0.038, 0.162, 0.992, 192.0, 0.0, 0.0, 0.0, 0.0, 0.0, 0.0, 0.0, 0.0, 0.0, 1.6953697640317056E9, 0.0, 2023-09-22 10:02:44.031
116.0, 3326.520720305529, 187500.0, 187500.0, 187500.0, 187500.0, 187500.0, 187500.0, 187500.0, 0.038, 0.162, 0.992, 192.0, 0.0, 0.0, 0.0, 0.0, 0.0, 0.0, 0.0, 0.0, 0.0, 1.6953697640317278E9, 0.0, 2023-09-22 10:02:44.031
117.0, 3307.812310196437, 187500.0, 187500.0, 187500.0, 187500.0, 187500.0, 187500.0, 187500.0, 0.038, 0.162, 0.992, 192.0, 0.0, 0.0, 0.0, 0.0, 0.0, 0.0, 0.0, 0.0, 0.0, 1.6953697640317502E9, 0.0, 2023-09-22 10:02:44.031
118.0, 3298.066949613923, 187500.0, 187500.0, 187500.0, 187500.0, 187500.0, 187500.0, 187500.0, 0.036000000000000004, 0.16, 0.99, 192.0, 1.0, 32.0, 5.0, 0.0, 30.0, 240.0, 0.0, 0.0, 0.0, 1.6953697640317738E9, 0.0, 2023-09-22 10:02:44.031
119.0, 3298.357522291842, 187500.0, 187500.0, 187500.0, 187500.0, 187500.0, 187500.0, 187500.0, 0.036000000000000004, 0.16, 0.99, 192.0, 0.0, 0.0, 0.0, 0.0, 0.0, 0.0, 0.0, 0.0, 0.0, 1.6953697640317984E9, 0.0, 2023-09-22 10:02:44.031
120.0, 3332.332173863909, 187500.0, 187500.0, 187500.0, 187500.0, 187500.0, 187500.0, 187500.0, 0.036000000000000004, 0.16, 0.99, 192.0, 0.0, 0.0, 0.0, 0.0, 0.0, 0.0, 0.0, 0.0, 0.0, 1.6953697640318203E9, 0.0, 2023-09-22 10:02:44.031
121.0, 3351.6664328177494, 187500.0, 187500.0, 187500.0, 187500.0, 187500.0, 187500.0, 187500.0, 0.036000000000000004, 0.16, 0.99, 192.0, 0.0, 0.0, 0.0, 0.0, 0.0, 0.0, 0.0, 0.0, 0.0, 1.6953697640318425E9, 0.0, 2023-09-22 10:02:44.031
122.0, 3361.612959100361, 187500.0, 187500.0, 187500.0, 187500.0, 187500.0, 187500.0, 187500.0, 0.036000000000000004, 0.16, 0.99, 192.0, 0.0, 0.0, 0.0, 0.0, 0.0, 0.0, 0.0, 0.0, 0.0, 1.6953697640318644E9, 0.0, 2023-09-22 10:02:44.031
123.0, 3359.6907090772047, 187500.0, 187500.0, 187500.0, 187500.0, 187500.0, 187500.0, 187500.0, 0.036000000000000004, 0.16, 0.99, 192.0, 0.0, 0.0, 0.0, 0.0, 0.0, 0.0, 0.0, 0.0, 0.0, 1.6953697640318868E9, 0.0, 2023-09-22 10:02:44.031
124.0, 3325.358429593853, 187500.0, 187500.0, 187500.0, 187500.0, 187500.0, 187500.0, 187500.0, 0.036000000000000004, 0.16, 0.99, 192.0, 0.0, 0.0, 0.0, 0.0, 0.0, 0.0, 0.0, 0.0, 0.0, 1.6953697640319095E9, 0.0, 2023-09-22 10:02:44.031
125.0, 3307.521737518518, 187500.0, 187500.0, 187500.0, 187500.0, 187500.0, 187500.0, 187500.0, 0.036000000000000004, 0.16, 0.99, 192.0, 0.0, 0.0, 0.0, 0.0, 0.0, 0.0, 0.0, 0.0, 0.0, 1.695369764031931E9, 0.0, 2023-09-22 10:02:44.031
126.0, 3298.4692810141187, 187500.0, 187500.0, 187500.0, 187500.0, 187500.0, 187500.0, 187500.0, 0.036000000000000004, 0.16, 0.99, 192.0, 0.0, 0.0, 0.0, 0.0, 0.0, 0.0, 0.0, 0.0, 0.0, 1.695369764031978E9, 0.0, 2023-09-22 10:02:44.031
127.0, 3299.2068885811436, 187500.0, 187500.0, 187500.0, 187500.0, 187500.0, 187500.0, 187500.0, 0.036000000000000004, 0.16, 0.99, 192.0, 0.0, 0.0, 0.0, 0.0, 0.0, 0.0, 0.0, 0.0, 0.0, 1.695369764032E9, 0.0, 2023-09-22 10:02:44.032
128.0, 3332.935670964202, 187500.0, 187500.0, 187500.0, 187500.0, 187500.0, 187500.0, 187500.0, 0.036000000000000004, 0.16, 0.99, 192.0, 1.0, 32.0, 5.0, 0.0, 30.0, 240.0, 0.0, 0.0, 0.0, 1.6953697640320213E9, 0.0, 2023-09-22 10:02:44.032
129.0, 3351.152342695277, 187500.0, 187500.0, 187500.0, 187500.0, 187500.0, 187500.0, 187500.0, 0.036000000000000004, 0.16, 0.99, 192.0, 0.0, 0.0, 0.0, 0.0, 0.0, 0.0, 0.0, 0.0, 0.0, 1.6953697640320437E9, 0.0, 2023-09-22 10:02:44.032
130.0, 3360.8529997888804, 187500.0, 187500.0, 187500.0, 187500.0, 187500.0, 187500.0, 187500.0, 0.036000000000000004, 0.16, 0.99, 192.0, 0.0, 0.0, 0.0, 0.0, 0.0, 0.0, 0.0, 0.0, 0.0, 1.6953697640320764E9, 0.0, 2023-09-22 10:02:44.032
131.0, 3360.6294823443277, 187500.0, 187500.0, 187500.0, 187500.0, 187500.0, 187500.0, 187500.0, 0.036000000000000004, 0.16, 0.99, 192.0, 0.0, 0.0, 0.0, 0.0, 0.0, 0.0, 0.0, 0.0, 0.0, 1.695369764032098E9, 0.0, 2023-09-22 10:02:44.032
132.0, 3327.057162172456, 187500.0, 187500.0, 187500.0, 187500.0, 187500.0, 187500.0, 187500.0, 0.036000000000000004, 0.16, 0.99, 192.0, 0.0, 0.0, 0.0, 0.0, 0.0, 0.0, 0.0, 0.0, 0.0, 1.6953697640321198E9, 0.0, 2023-09-22 10:02:44.032
133.0, 3307.4770340296072, 187500.0, 187500.0, 187500.0, 187500.0, 187500.0, 187500.0, 187500.0, 0.036000000000000004, 0.16, 0.99, 192.0, 0.0, 0.0, 0.0, 0.0, 0.0, 0.0, 0.0, 0.0, 0.0, 1.6953697640321548E9, 0.0, 2023-09-22 10:02:44.032
134.0, 3297.754025191549, 187500.0, 187500.0, 187500.0, 187500.0, 187500.0, 187500.0, 187500.0, 0.036000000000000004, 0.16, 0.99, 192.0, 0.0, 0.0, 0.0, 0.0, 0.0, 0.0, 0.0, 0.0, 0.0, 1.6953697640321767E9, 0.0, 2023-09-22 10:02:44.032
135.0, 3299.2515920700544, 187500.0, 187500.0, 187500.0, 187500.0, 187500.0, 187500.0, 187500.0, 0.036000000000000004, 0.16, 0.99, 192.0, 0.0, 0.0, 0.0, 0.0, 0.0, 0.0, 0.0, 0.0, 0.0, 1.6953697640321984E9, 0.0, 2023-09-22 10:02:44.032
136.0, 3333.7850372535036, 187500.0, 187500.0, 187500.0, 187500.0, 187500.0, 187500.0, 187500.0, 0.036000000000000004, 0.16, 0.99, 192.0, 0.0, 0.0, 0.0, 0.0, 0.0, 0.0, 0.0, 0.0, 0.0, 1.695369764032231E9, 0.0, 2023-09-22 10:02:44.032
137.0, 3352.6722613182383, 187500.0, 187500.0, 187500.0, 187500.0, 187500.0, 187500.0, 187500.0, 0.036000000000000004, 0.16, 0.99, 192.0, 0.0, 0.0, 0.0, 0.0, 0.0, 0.0, 0.0, 0.0, 0.0, 1.6953697640322535E9, 0.0, 2023-09-22 10:02:44.032
138.0, 3361.4341451447185, 187500.0, 187500.0, 187500.0, 187500.0, 187500.0, 187500.0, 187500.0, 0.032, 0.156, 0.99, 192.0, 1.0, 0.0, 4.0, 224.0, 30.0, 240.0, 0.0, 0.0, 0.0, 1.6953697640322757E9, 0.0, 2023-09-22 10:02:44.032
139.0, 3360.227150944132, 187500.0, 187500.0, 187500.0, 187500.0, 187500.0, 187500.0, 187500.0, 0.032, 0.156, 0.99, 192.0, 0.0, 0.0, 0.0, 0.0, 0.0, 0.0, 0.0, 0.0, 0.0, 1.6953697640322983E9, 0.0, 2023-09-22 10:02:44.032
140.0, 3327.1689208947328, 187500.0, 187500.0, 187500.0, 187500.0, 187500.0, 187500.0, 187500.0, 0.032, 0.156, 0.99, 192.0, 0.0, 0.0, 0.0, 0.0, 0.0, 0.0, 0.0, 0.0, 0.0, 1.69536976403233E9, 0.0, 2023-09-22 10:02:44.032
141.0, 3308.527566019007, 187500.0, 187500.0, 187500.0, 187500.0, 187500.0, 187500.0, 187500.0, 0.032, 0.156, 0.99, 192.0, 0.0, 0.0, 0.0, 0.0, 0.0, 0.0, 0.0, 0.0, 0.0, 1.6953697640323505E9, 0.0, 2023-09-22 10:02:44.032
142.0, 3299.430406025697, 187500.0, 187500.0, 187500.0, 187500.0, 187500.0, 187500.0, 187500.0, 0.032, 0.156, 0.99, 192.0, 0.0, 0.0, 0.0, 0.0, 0.0, 0.0, 0.0, 0.0, 0.0, 1.695369764032371E9, 0.0, 2023-09-22 10:02:44.032
143.0, 3299.363350792331, 187500.0, 187500.0, 187500.0, 187500.0, 187500.0, 187500.0, 187500.0, 0.032, 0.156, 0.99, 192.0, 0.0, 0.0, 0.0, 0.0, 0.0, 0.0, 0.0, 0.0, 0.0, 1.6953697640323927E9, 0.0, 2023-09-22 10:02:44.032
144.0, 3333.270947131032, 187500.0, 187500.0, 187500.0, 187500.0, 187500.0, 187500.0, 187500.0, 0.032, 0.156, 0.99, 192.0, 0.0, 0.0, 0.0, 0.0, 0.0, 0.0, 0.0, 0.0, 0.0, 1.6953697640324123E9, 0.0, 2023-09-22 10:02:44.032
145.0, 3352.381688640319, 187500.0, 187500.0, 187500.0, 187500.0, 187500.0, 187500.0, 187500.0, 0.032, 0.156, 0.99, 192.0, 0.0, 0.0, 0.0, 0.0, 0.0, 0.0, 0.0, 0.0, 0.0, 1.6953697640324323E9, 0.0, 2023-09-22 10:02:44.032
146.0, 3362.23880794511, 187500.0, 187500.0, 187500.0, 187500.0, 187500.0, 187500.0, 187500.0, 0.032, 0.156, 0.99, 192.0, 0.0, 0.0, 0.0, 0.0, 0.0, 0.0, 0.0, 0.0, 0.0, 1.6953697640324514E9, 0.0, 2023-09-22 10:02:44.032
147.0, 3361.0541654889785, 187500.0, 187500.0, 187500.0, 187500.0, 187500.0, 187500.0, 187500.0, 0.032, 0.156, 0.99, 192.0, 0.0, 0.0, 0.0, 0.0, 0.0, 0.0, 0.0, 0.0, 0.0, 1.6953697640324707E9, 0.0, 2023-09-22 10:02:44.032
148.0, 3327.0795139169118, 187500.0, 187500.0, 187500.0, 187500.0, 187500.0, 187500.0, 187500.0, 0.034, 0.162, 0.988, 192.0, 1.0, 16.0, 5.0, 16.0, 30.0, 224.0, 0.0, 0.0, 0.0, 1.6953697640324886E9, 0.0, 2023-09-22 10:02:44.032
149.0, 3308.3487520633644, 187500.0, 187500.0, 187500.0, 187500.0, 187500.0, 187500.0, 187500.0, 0.034, 0.162, 0.988, 192.0, 0.0, 0.0, 0.0, 0.0, 0.0, 0.0, 0.0, 0.0, 0.0, 1.695369764032509E9, 0.0, 2023-09-22 10:02:44.032
150.0, 3299.005722881046, 187500.0, 187500.0, 187500.0, 187500.0, 187500.0, 187500.0, 187500.0, 0.034, 0.162, 0.988, 192.0, 0.0, 0.0, 0.0, 0.0, 0.0, 0.0, 0.0, 0.0, 0.0, 1.6953697640325296E9, 0.0, 2023-09-22 10:02:44.032
151.0, 3300.5479932484623, 187500.0, 187500.0, 187500.0, 187500.0, 187500.0, 187500.0, 187500.0, 0.034, 0.162, 0.988, 192.0, 0.0, 0.0, 0.0, 0.0, 0.0, 0.0, 0.0, 0.0, 0.0, 1.6953697640325491E9, 0.0, 2023-09-22 10:02:44.032
152.0, 3334.0756099314226, 187500.0, 187500.0, 187500.0, 187500.0, 187500.0, 187500.0, 187500.0, 0.034, 0.162, 0.988, 192.0, 0.0, 0.0, 0.0, 0.0, 0.0, 0.0, 0.0, 0.0, 0.0, 1.6953697640325696E9, 0.0, 2023-09-22 10:02:44.032
153.0, 3352.068764217945, 187500.0, 187500.0, 187500.0, 187500.0, 187500.0, 187500.0, 187500.0, 0.034, 0.162, 0.988, 192.0, 0.0, 0.0, 0.0, 0.0, 0.0, 0.0, 0.0, 0.0, 0.0, 1.69536976403259E9, 0.0, 2023-09-22 10:02:44.032
154.0, 3361.8141248004586, 187500.0, 187500.0, 187500.0, 187500.0, 187500.0, 187500.0, 187500.0, 0.034, 0.162, 0.988, 192.0, 0.0, 0.0, 0.0, 0.0, 0.0, 0.0, 0.0, 0.0, 0.0, 1.69536976403261E9, 0.0, 2023-09-22 10:02:44.032
155.0, 3361.389441655808, 187500.0, 187500.0, 187500.0, 187500.0, 187500.0, 187500.0, 187500.0, 0.034, 0.162, 0.988, 192.0, 0.0, 0.0, 0.0, 0.0, 0.0, 0.0, 0.0, 0.0, 0.0, 1.69536976403263E9, 0.0, 2023-09-22 10:02:44.032
156.0, 3327.906528461758, 187500.0, 187500.0, 187500.0, 187500.0, 187500.0, 187500.0, 187500.0, 0.034, 0.162, 0.988, 192.0, 0.0, 0.0, 0.0, 0.0, 0.0, 0.0, 0.0, 0.0, 0.0, 1.6953697640326507E9, 0.0, 2023-09-22 10:02:44.032
157.0, 3308.6393247412834, 187500.0, 187500.0, 187500.0, 187500.0, 187500.0, 187500.0, 187500.0, 0.034, 0.162, 0.988, 192.0, 0.0, 0.0, 0.0, 0.0, 0.0, 0.0, 0.0, 0.0, 0.0, 1.6953697640326715E9, 0.0, 2023-09-22 10:02:44.032
158.0, 3298.7598536920377, 187500.0, 187500.0, 187500.0, 187500.0, 187500.0, 187500.0, 187500.0, 0.04, 0.166, 0.99, 192.0, 1.0, 64.0, 5.0, 48.0, 30.0, 240.0, 0.0, 0.0, 0.0, 1.695369764032692E9, 0.0, 2023-09-22 10:02:44.032
159.0, 3299.408054281241, 187500.0, 187500.0, 187500.0, 187500.0, 187500.0, 187500.0, 187500.0, 0.04, 0.166, 0.99, 192.0, 0.0, 0.0, 0.0, 0.0, 0.0, 0.0, 0.0, 0.0, 0.0, 1.6953697640327127E9, 0.0, 2023-09-22 10:02:44.032
160.0, 3333.159188408755, 187500.0, 187500.0, 187500.0, 187500.0, 187500.0, 187500.0, 187500.0, 0.04, 0.166, 0.99, 192.0, 0.0, 0.0, 0.0, 0.0, 0.0, 0.0, 0.0, 0.0, 0.0, 1.6953697640327332E9, 0.0, 2023-09-22 10:02:44.032
161.0, 3352.6052060848724, 187500.0, 187500.0, 187500.0, 187500.0, 187500.0, 187500.0, 187500.0, 0.04, 0.166, 0.99, 192.0, 0.0, 0.0, 0.0, 0.0, 0.0, 0.0, 0.0, 0.0, 0.0, 1.6953697640327537E9, 0.0, 2023-09-22 10:02:44.032
162.0, 3361.881180033825, 187500.0, 187500.0, 187500.0, 187500.0, 187500.0, 187500.0, 187500.0, 0.04, 0.166, 0.99, 192.0, 0.0, 0.0, 0.0, 0.0, 0.0, 0.0, 0.0, 0.0, 0.0, 1.6953697640327735E9, 0.0, 2023-09-22 10:02:44.032
163.0, 3359.8918747773023, 187500.0, 187500.0, 187500.0, 187500.0, 187500.0, 187500.0, 187500.0, 0.04, 0.166, 0.99, 192.0, 0.0, 0.0, 0.0, 0.0, 0.0, 0.0, 0.0, 0.0, 0.0, 1.695369764032793E9, 0.0, 2023-09-22 10:02:44.032
164.0, 3325.6937057606824, 187500.0, 187500.0, 187500.0, 187500.0, 187500.0, 187500.0, 187500.0, 0.04, 0.166, 0.99, 192.0, 0.0, 0.0, 0.0, 0.0, 0.0, 0.0, 0.0, 0.0, 0.0, 1.695369764032812E9, 0.0, 2023-09-22 10:02:44.032
165.0, 3308.527566019007, 187500.0, 187500.0, 187500.0, 187500.0, 187500.0, 187500.0, 187500.0, 0.04, 0.166, 0.99, 192.0, 0.0, 0.0, 0.0, 0.0, 0.0, 0.0, 0.0, 0.0, 0.0, 1.6953697640328312E9, 0.0, 2023-09-22 10:02:44.032
166.0, 3299.519813003518, 187500.0, 187500.0, 187500.0, 187500.0, 187500.0, 187500.0, 187500.0, 0.04, 0.166, 0.99, 192.0, 0.0, 0.0, 0.0, 0.0, 0.0, 0.0, 0.0, 0.0, 0.0, 1.6953697640328512E9, 0.0, 2023-09-22 10:02:44.032
167.0, 3300.100958359356, 187500.0, 187500.0, 187500.0, 187500.0, 187500.0, 187500.0, 187500.0, 0.04, 0.166, 0.99, 192.0, 0.0, 0.0, 0.0, 0.0, 0.0, 0.0, 0.0, 0.0, 0.0, 1.6953697640328703E9, 0.0, 2023-09-22 10:02:44.032
168.0, 3333.270947131032, 187500.0, 187500.0, 187500.0, 187500.0, 187500.0, 187500.0, 187500.0, 0.036000000000000004, 0.164, 0.99, 192.0, 1.0, 32.0, 5.0, 32.0, 30.0, 240.0, 0.0, 0.0, 0.0, 1.6953697640328896E9, 0.0, 2023-09-22 10:02:44.032
169.0, 3351.509970606562, 187500.0, 187500.0, 187500.0, 187500.0, 187500.0, 187500.0, 187500.0, 0.036000000000000004, 0.164, 0.99, 192.0, 0.0, 0.0, 0.0, 0.0, 0.0, 0.0, 0.0, 0.0, 0.0, 1.6953697640329099E9, 0.0, 2023-09-22 10:02:44.032
170.0, 3361.165924211255, 187500.0, 187500.0, 187500.0, 187500.0, 187500.0, 187500.0, 187500.0, 0.036000000000000004, 0.164, 0.99, 192.0, 0.0, 0.0, 0.0, 0.0, 0.0, 0.0, 0.0, 0.0, 0.0, 1.6953697640329304E9, 0.0, 2023-09-22 10:02:44.032
171.0, 3360.6294823443277, 187500.0, 187500.0, 187500.0, 187500.0, 187500.0, 187500.0, 187500.0, 0.036000000000000004, 0.164, 0.99, 192.0, 0.0, 0.0, 0.0, 0.0, 0.0, 0.0, 0.0, 0.0, 0.0, 1.6953697640329509E9, 0.0, 2023-09-22 10:02:44.032
172.0, 3326.766589494537, 187500.0, 187500.0, 187500.0, 187500.0, 187500.0, 187500.0, 187500.0, 0.036000000000000004, 0.164, 0.99, 192.0, 0.0, 0.0, 0.0, 0.0, 0.0, 0.0, 0.0, 0.0, 0.0, 1.695369764032971E9, 0.0, 2023-09-22 10:02:44.032
173.0, 3307.901717174258, 187500.0, 187500.0, 187500.0, 187500.0, 187500.0, 187500.0, 187500.0, 0.036000000000000004, 0.164, 0.99, 192.0, 0.0, 0.0, 0.0, 0.0, 0.0, 0.0, 0.0, 0.0, 0.0, 1.6953697640329902E9, 0.0, 2023-09-22 10:02:44.032
174.0, 3298.402225780753, 187500.0, 187500.0, 187500.0, 187500.0, 187500.0, 187500.0, 187500.0, 0.036000000000000004, 0.164, 0.99, 192.0, 0.0, 0.0, 0.0, 0.0, 0.0, 0.0, 0.0, 0.0, 0.0, 1.6953697640330098E9, 0.0, 2023-09-22 10:02:44.033
175.0, 3298.9163159032246, 187500.0, 187500.0, 187500.0, 187500.0, 187500.0, 187500.0, 187500.0, 0.036000000000000004, 0.164, 0.99, 192.0, 0.0, 0.0, 0.0, 0.0, 0.0, 0.0, 0.0, 0.0, 0.0, 1.6953697640330296E9, 0.0, 2023-09-22 10:02:44.033
176.0, 3333.226243642121, 187500.0, 187500.0, 187500.0, 187500.0, 187500.0, 187500.0, 187500.0, 0.036000000000000004, 0.164, 0.99, 192.0, 0.0, 0.0, 0.0, 0.0, 0.0, 0.0, 0.0, 0.0, 0.0, 1.695369764033049E9, 0.0, 2023-09-22 10:02:44.033
177.0, 3352.4040403847744, 187500.0, 187500.0, 187500.0, 187500.0, 187500.0, 187500.0, 187500.0, 0.036000000000000004, 0.164, 0.99, 192.0, 0.0, 0.0, 0.0, 0.0, 0.0, 0.0, 0.0, 0.0, 0.0, 1.695369764033069E9, 0.0, 2023-09-22 10:02:44.033
178.0, 3361.635310844816, 187500.0, 187500.0, 187500.0, 187500.0, 187500.0, 187500.0, 187500.0, 0.036000000000000004, 0.166, 0.988, 192.0, 1.0, 32.0, 5.0, 48.0, 30.0, 224.0, 0.0, 0.0, 0.0, 1.6953697640330896E9, 0.0, 2023-09-22 10:02:44.033
179.0, 3360.6294823443277, 187500.0, 187500.0, 187500.0, 187500.0, 187500.0, 187500.0, 187500.0, 0.036000000000000004, 0.166, 0.988, 192.0, 0.0, 0.0, 0.0, 0.0, 0.0, 0.0, 0.0, 0.0, 0.0, 1.69536976403311E9, 0.0, 2023-09-22 10:02:44.033
180.0, 3326.6995342611713, 187500.0, 187500.0, 187500.0, 187500.0, 187500.0, 187500.0, 187500.0, 0.036000000000000004, 0.166, 0.988, 192.0, 0.0, 0.0, 0.0, 0.0, 0.0, 0.0, 0.0, 0.0, 0.0, 1.6953697640331304E9, 0.0, 2023-09-22 10:02:44.033
181.0, 3308.616972996828, 187500.0, 187500.0, 187500.0, 187500.0, 187500.0, 187500.0, 187500.0, 0.036000000000000004, 0.166, 0.988, 192.0, 0.0, 0.0, 0.0, 0.0, 0.0, 0.0, 0.0, 0.0, 0.0, 1.6953697640331497E9, 0.0, 2023-09-22 10:02:44.033
182.0, 3299.5421647479734, 187500.0, 187500.0, 187500.0, 187500.0, 187500.0, 187500.0, 187500.0, 0.036000000000000004, 0.166, 0.988, 192.0, 0.0, 0.0, 0.0, 0.0, 0.0, 0.0, 0.0, 0.0, 0.0, 1.6953697640331688E9, 0.0, 2023-09-22 10:02:44.033
183.0, 3299.2068885811436, 187500.0, 187500.0, 187500.0, 187500.0, 187500.0, 187500.0, 187500.0, 0.036000000000000004, 0.166, 0.988, 192.0, 0.0, 0.0, 0.0, 0.0, 0.0, 0.0, 0.0, 0.0, 0.0, 1.6953697640331893E9, 0.0, 2023-09-22 10:02:44.033
184.0, 3332.913319219747, 187500.0, 187500.0, 187500.0, 187500.0, 187500.0, 187500.0, 187500.0, 0.036000000000000004, 0.166, 0.988, 192.0, 0.0, 0.0, 0.0, 0.0, 0.0, 0.0, 0.0, 0.0, 0.0, 1.6953697640332081E9, 0.0, 2023-09-22 10:02:44.033
185.0, 3352.5381508515065, 187500.0, 187500.0, 187500.0, 187500.0, 187500.0, 187500.0, 187500.0, 0.036000000000000004, 0.166, 0.988, 192.0, 0.0, 0.0, 0.0, 0.0, 0.0, 0.0, 0.0, 0.0, 0.0, 1.6953697640332274E9, 0.0, 2023-09-22 10:02:44.033
186.0, 3362.4399736452074, 187500.0, 187500.0, 187500.0, 187500.0, 187500.0, 187500.0, 187500.0, 0.036000000000000004, 0.166, 0.988, 192.0, 0.0, 0.0, 0.0, 0.0, 0.0, 0.0, 0.0, 0.0, 0.0, 1.6953697640332477E9, 0.0, 2023-09-22 10:02:44.033
187.0, 3361.4564968891736, 187500.0, 187500.0, 187500.0, 187500.0, 187500.0, 187500.0, 187500.0, 0.036000000000000004, 0.166, 0.988, 192.0, 0.0, 0.0, 0.0, 0.0, 0.0, 0.0, 0.0, 0.0, 0.0, 1.6953697640332687E9, 0.0, 2023-09-22 10:02:44.033
188.0, 3327.414790083741, 187500.0, 187500.0, 187500.0, 187500.0, 187500.0, 187500.0, 187500.0, 0.036000000000000004, 0.166, 0.986, 192.0, 1.0, 32.0, 5.0, 48.0, 30.0, 208.0, 0.0, 0.0, 0.0, 1.6953697640332892E9, 0.0, 2023-09-22 10:02:44.033
189.0, 3308.192289852177, 187500.0, 187500.0, 187500.0, 187500.0, 187500.0, 187500.0, 187500.0, 0.036000000000000004, 0.166, 0.986, 192.0, 0.0, 0.0, 0.0, 0.0, 0.0, 0.0, 0.0, 0.0, 0.0, 1.6953697640333097E9, 0.0, 2023-09-22 10:02:44.033
190.0, 3298.9610193921353, 187500.0, 187500.0, 187500.0, 187500.0, 187500.0, 187500.0, 187500.0, 0.036000000000000004, 0.166, 0.986, 192.0, 0.0, 0.0, 0.0, 0.0, 0.0, 0.0, 0.0, 0.0, 0.0, 1.6953697640333292E9, 0.0, 2023-09-22 10:02:44.033
191.0, 3300.5256415040067, 187500.0, 187500.0, 187500.0, 187500.0, 187500.0, 187500.0, 187500.0, 0.036000000000000004, 0.166, 0.986, 192.0, 0.0, 0.0, 0.0, 0.0, 0.0, 0.0, 0.0, 0.0, 0.0, 1.6953697640333495E9, 0.0, 2023-09-22 10:02:44.033
192.0, 3334.522644820529, 187500.0, 187500.0, 187500.0, 187500.0, 187500.0, 187500.0, 187500.0, 0.036000000000000004, 0.166, 0.986, 192.0, 0.0, 0.0, 0.0, 0.0, 0.0, 0.0, 0.0, 0.0, 0.0, 1.6953697640333695E9, 0.0, 2023-09-22 10:02:44.033
193.0, 3353.3428136518974, 187500.0, 187500.0, 187500.0, 187500.0, 187500.0, 187500.0, 187500.0, 0.036000000000000004, 0.166, 0.986, 192.0, 0.0, 0.0, 0.0, 0.0, 0.0, 0.0, 0.0, 0.0, 0.0, 1.6953697640333908E9, 0.0, 2023-09-22 10:02:44.033
194.0, 3362.4399736452074, 187500.0, 187500.0, 187500.0, 187500.0, 187500.0, 187500.0, 187500.0, 0.036000000000000004, 0.166, 0.986, 192.0, 0.0, 0.0, 0.0, 0.0, 0.0, 0.0, 0.0, 0.0, 0.0, 1.6953697640334103E9, 0.0, 2023-09-22 10:02:44.033
195.0, 3361.612959100361, 187500.0, 187500.0, 187500.0, 187500.0, 187500.0, 187500.0, 187500.0, 0.036000000000000004, 0.166, 0.986, 192.0, 0.0, 0.0, 0.0, 0.0, 0.0, 0.0, 0.0, 0.0, 0.0, 1.6953697640334308E9, 0.0, 2023-09-22 10:02:44.033
196.0, 3327.995935439579, 187500.0, 187500.0, 187500.0, 187500.0, 187500.0, 187500.0, 187500.0, 0.036000000000000004, 0.166, 0.986, 192.0, 0.0, 0.0, 0.0, 0.0, 0.0, 0.0, 0.0, 0.0, 0.0, 1.6953697640334513E9, 0.0, 2023-09-22 10:02:44.033
197.0, 3309.8239671974147, 187500.0, 187500.0, 187500.0, 187500.0, 187500.0, 187500.0, 187500.0, 0.036000000000000004, 0.166, 0.986, 192.0, 0.0, 0.0, 0.0, 0.0, 0.0, 0.0, 0.0, 0.0, 0.0, 1.6953697640334723E9, 0.0, 2023-09-22 10:02:44.033
198.0, 3300.03390312599, 187500.0, 187500.0, 187500.0, 187500.0, 187500.0, 187500.0, 187500.0, 0.034, 0.162, 0.994, 192.0, 1.0, 16.0, 5.0, 16.0, 31.0, 16.0, 0.0, 0.0, 0.0, 1.695369764033492E9, 0.0, 2023-09-22 10:02:44.033
199.0, 3300.257420570543, 187500.0, 187500.0, 187500.0, 187500.0, 187500.0, 187500.0, 187500.0, 0.034, 0.162, 0.994, 192.0, 0.0, 0.0, 0.0, 0.0, 0.0, 0.0, 0.0, 0.0, 0.0, 1.6953697640335112E9, 0.0, 2023-09-22 10:02:44.033
200.0, 3334.299127375976, 187500.0, 187500.0, 187500.0, 187500.0, 187500.0, 187500.0, 187500.0, 0.034, 0.162, 0.994, 192.0, 0.0, 0.0, 0.0, 0.0, 0.0, 0.0, 0.0, 0.0, 0.0, 1.6953697640335312E9, 0.0, 2023-09-22 10:02:44.033
201.0, 3353.7004415631823, 187500.0, 187500.0, 187500.0, 187500.0, 187500.0, 187500.0, 187500.0, 0.034, 0.162, 0.994, 192.0, 0.0, 0.0, 0.0, 0.0, 0.0, 0.0, 0.0, 0.0, 0.0, 1.6953697640335505E9, 0.0, 2023-09-22 10:02:44.033
202.0, 3363.356395167875, 187500.0, 187500.0, 187500.0, 187500.0, 187500.0, 187500.0, 187500.0, 0.034, 0.162, 0.994, 192.0, 0.0, 0.0, 0.0, 0.0, 0.0, 0.0, 0.0, 0.0, 0.0, 1.6953697640335698E9, 0.0, 2023-09-22 10:02:44.033
203.0, 3361.7917730560034, 187500.0, 187500.0, 187500.0, 187500.0, 187500.0, 187500.0, 187500.0, 0.034, 0.162, 0.994, 192.0, 0.0, 0.0, 0.0, 0.0, 0.0, 0.0, 0.0, 0.0, 0.0, 1.69536976403359E9, 0.0, 2023-09-22 10:02:44.033
204.0, 3327.8171214839367, 187500.0, 187500.0, 187500.0, 187500.0, 187500.0, 187500.0, 187500.0, 0.034, 0.162, 0.994, 192.0, 0.0, 0.0, 0.0, 0.0, 0.0, 0.0, 0.0, 0.0, 0.0, 1.6953697640336108E9, 0.0, 2023-09-22 10:02:44.033
205.0, 3309.0863596303893, 187500.0, 187500.0, 187500.0, 187500.0, 187500.0, 187500.0, 187500.0, 0.034, 0.162, 0.994, 192.0, 0.0, 0.0, 0.0, 0.0, 0.0, 0.0, 0.0, 0.0, 0.0, 1.695369764033632E9, 0.0, 2023-09-22 10:02:44.033
206.0, 3300.346827548364, 187500.0, 187500.0, 187500.0, 187500.0, 187500.0, 187500.0, 187500.0, 0.034, 0.162, 0.994, 192.0, 0.0, 0.0, 0.0, 0.0, 0.0, 0.0, 0.0, 0.0, 0.0, 1.695369764033652E9, 0.0, 2023-09-22 10:02:44.033
207.0, 3300.7268072041047, 187500.0, 187500.0, 187500.0, 187500.0, 187500.0, 187500.0, 187500.0, 0.034, 0.162, 0.994, 192.0, 0.0, 0.0, 0.0, 0.0, 0.0, 0.0, 0.0, 0.0, 0.0, 1.6953697640336714E9, 0.0, 2023-09-22 10:02:44.033
208.0, 3334.1426651647885, 187500.0, 187500.0, 187500.0, 187500.0, 187500.0, 187500.0, 187500.0, 0.036000000000000004, 0.162, 0.99, 192.0, 1.0, 32.0, 5.0, 16.0, 30.0, 240.0, 0.0, 0.0, 0.0, 1.6953697640336907E9, 0.0, 2023-09-22 10:02:44.033
209.0, 3352.8510752738807, 187500.0, 187500.0, 187500.0, 187500.0, 187500.0, 187500.0, 187500.0, 0.036000000000000004, 0.162, 0.99, 192.0, 0.0, 0.0, 0.0, 0.0, 0.0, 0.0, 0.0, 0.0, 0.0, 1.6953697640337107E9, 0.0, 2023-09-22 10:02:44.033
210.0, 3362.574084111939, 187500.0, 187500.0, 187500.0, 187500.0, 187500.0, 187500.0, 187500.0, 0.036000000000000004, 0.162, 0.99, 192.0, 0.0, 0.0, 0.0, 0.0, 0.0, 0.0, 0.0, 0.0, 0.0, 1.6953697640337296E9, 0.0, 2023-09-22 10:02:44.033
211.0, 3362.0152905005566, 187500.0, 187500.0, 187500.0, 187500.0, 187500.0, 187500.0, 187500.0, 0.036000000000000004, 0.162, 0.99, 192.0, 0.0, 0.0, 0.0, 0.0, 0.0, 0.0, 0.0, 0.0, 0.0, 1.695369764033749E9, 0.0, 2023-09-22 10:02:44.033
212.0, 3328.398266839775, 187500.0, 187500.0, 187500.0, 187500.0, 187500.0, 187500.0, 187500.0, 0.036000000000000004, 0.162, 0.99, 192.0, 0.0, 0.0, 0.0, 0.0, 0.0, 0.0, 0.0, 0.0, 0.0, 1.6953697640337696E9, 0.0, 2023-09-22 10:02:44.033
213.0, 3309.0416561414786, 187500.0, 187500.0, 187500.0, 187500.0, 187500.0, 187500.0, 187500.0, 0.036000000000000004, 0.162, 0.99, 192.0, 0.0, 0.0, 0.0, 0.0, 0.0, 0.0, 0.0, 0.0, 0.0, 1.69536976403379E9, 0.0, 2023-09-22 10:02:44.033
214.0, 3299.363350792331, 187500.0, 187500.0, 187500.0, 187500.0, 187500.0, 187500.0, 187500.0, 0.036000000000000004, 0.162, 0.99, 192.0, 0.0, 0.0, 0.0, 0.0, 0.0, 0.0, 0.0, 0.0, 0.0, 1.69536976403381E9, 0.0, 2023-09-22 10:02:44.033
215.0, 3300.6374002262833, 187500.0, 187500.0, 187500.0, 187500.0, 187500.0, 187500.0, 187500.0, 0.036000000000000004, 0.162, 0.99, 192.0, 0.0, 0.0, 0.0, 0.0, 0.0, 0.0, 0.0, 0.0, 0.0, 1.6953697640338297E9, 0.0, 2023-09-22 10:02:44.033
216.0, 3335.0814384319115, 187500.0, 187500.0, 187500.0, 187500.0, 187500.0, 187500.0, 187500.0, 0.036000000000000004, 0.162, 0.99, 192.0, 0.0, 0.0, 0.0, 0.0, 0.0, 0.0, 0.0, 0.0, 0.0, 1.6953697640338497E9, 0.0, 2023-09-22 10:02:44.033
217.0, 3353.6110345853613, 187500.0, 187500.0, 187500.0, 187500.0, 187500.0, 187500.0, 187500.0, 0.036000000000000004, 0.158, 0.988, 192.0, 1.0, 32.0, 4.0, 240.0, 30.0, 224.0, 0.0, 0.0, 0.0, 1.6953697640338697E9, 0.0, 2023-09-22 10:02:44.033
218.0, 3362.551732367484, 187500.0, 187500.0, 187500.0, 187500.0, 187500.0, 187500.0, 187500.0, 0.036000000000000004, 0.158, 0.988, 192.0, 0.0, 0.0, 0.0, 0.0, 0.0, 0.0, 0.0, 0.0, 0.0, 1.6953697640338893E9, 0.0, 2023-09-22 10:02:44.033
219.0, 3361.2106277001653, 187500.0, 187500.0, 187500.0, 187500.0, 187500.0, 187500.0, 187500.0, 0.036000000000000004, 0.158, 0.988, 192.0, 0.0, 0.0, 0.0, 0.0, 0.0, 0.0, 0.0, 0.0, 0.0, 1.6953697640339084E9, 0.0, 2023-09-22 10:02:44.033
220.0, 3326.967755194635, 187500.0, 187500.0, 187500.0, 187500.0, 187500.0, 187500.0, 187500.0, 0.036000000000000004, 0.158, 0.988, 192.0, 0.0, 0.0, 0.0, 0.0, 0.0, 0.0, 0.0, 0.0, 0.0, 1.6953697640339284E9, 0.0, 2023-09-22 10:02:44.033
221.0, 3309.6004497528616, 187500.0, 187500.0, 187500.0, 187500.0, 187500.0, 187500.0, 187500.0, 0.036000000000000004, 0.158, 0.988, 192.0, 0.0, 0.0, 0.0, 0.0, 0.0, 0.0, 0.0, 0.0, 0.0, 1.6953697640339491E9, 0.0, 2023-09-22 10:02:44.033
222.0, 3300.659751970739, 187500.0, 187500.0, 187500.0, 187500.0, 187500.0, 187500.0, 187500.0, 0.036000000000000004, 0.158, 0.988, 192.0, 0.0, 0.0, 0.0, 0.0, 0.0, 0.0, 0.0, 0.0, 0.0, 1.6953697640339696E9, 0.0, 2023-09-22 10:02:44.033
223.0, 3300.8832694152916, 187500.0, 187500.0, 187500.0, 187500.0, 187500.0, 187500.0, 187500.0, 0.036000000000000004, 0.158, 0.988, 192.0, 0.0, 0.0, 0.0, 0.0, 0.0, 0.0, 0.0, 0.0, 0.0, 1.6953697640339904E9, 0.0, 2023-09-22 10:02:44.033
224.0, 3334.3438308648865, 187500.0, 187500.0, 187500.0, 187500.0, 187500.0, 187500.0, 187500.0, 0.036000000000000004, 0.158, 0.988, 192.0, 0.0, 0.0, 0.0, 0.0, 0.0, 0.0, 0.0, 0.0, 0.0, 1.6953697640340097E9, 0.0, 2023-09-22 10:02:44.034
225.0, 3353.8569037743696, 187500.0, 187500.0, 187500.0, 187500.0, 187500.0, 187500.0, 187500.0, 0.036000000000000004, 0.158, 0.988, 192.0, 0.0, 0.0, 0.0, 0.0, 0.0, 0.0, 0.0, 0.0, 0.0, 1.6953697640340292E9, 0.0, 2023-09-22 10:02:44.034
226.0, 3363.9598922681685, 187500.0, 187500.0, 187500.0, 187500.0, 187500.0, 187500.0, 187500.0, 0.036000000000000004, 0.158, 0.988, 192.0, 0.0, 0.0, 0.0, 0.0, 0.0, 0.0, 0.0, 0.0, 0.0, 1.69536976451286E9, 0.0, 2023-09-22 10:02:44.512
227.0, 3362.864656789858, 187500.0, 187500.0, 187500.0, 187500.0, 187500.0, 187500.0, 187500.0, 0.038, 0.16, 0.988, 192.0, 1.0, 48.0, 5.0, 0.0, 30.0, 224.0, 0.0, 0.0, 0.0, 1.6953697645129955E9, 0.0, 2023-09-22 10:02:44.512
228.0, 3328.2418046285875, 187500.0, 187500.0, 187500.0, 187500.0, 187500.0, 187500.0, 187500.0, 0.038, 0.16, 0.988, 192.0, 0.0, 0.0, 0.0, 0.0, 0.0, 0.0, 0.0, 0.0, 0.0, 1.695369764513116E9, 0.0, 2023-09-22 10:02:44.513
229.0, 3309.6004497528616, 187500.0, 187500.0, 187500.0, 187500.0, 187500.0, 187500.0, 187500.0, 0.038, 0.16, 0.988, 192.0, 0.0, 0.0, 0.0, 0.0, 0.0, 0.0, 0.0, 0.0, 0.0, 1.6953697645131574E9, 0.0, 2023-09-22 10:02:44.513
230.0, 3300.03390312599, 187500.0, 187500.0, 187500.0, 187500.0, 187500.0, 187500.0, 187500.0, 0.038, 0.16, 0.988, 192.0, 0.0, 0.0, 0.0, 0.0, 0.0, 0.0, 0.0, 0.0, 0.0, 1.6953697645131865E9, 0.0, 2023-09-22 10:02:44.513
231.0, 3301.3079525599424, 187500.0, 187500.0, 187500.0, 187500.0, 187500.0, 187500.0, 187500.0, 0.038, 0.16, 0.988, 192.0, 0.0, 0.0, 0.0, 0.0, 0.0, 0.0, 0.0, 0.0, 0.0, 1.6953697645132115E9, 0.0, 2023-09-22 10:02:44.513
232.0, 3335.3943628542856, 187500.0, 187500.0, 187500.0, 187500.0, 187500.0, 187500.0, 187500.0, 0.038, 0.16, 0.988, 192.0, 0.0, 0.0, 0.0, 0.0, 0.0, 0.0, 0.0, 0.0, 0.0, 1.695369764513235E9, 0.0, 2023-09-22 10:02:44.513
233.0, 3354.1698281967438, 187500.0, 187500.0, 187500.0, 187500.0, 187500.0, 187500.0, 187500.0, 0.038, 0.16, 0.988, 192.0, 0.0, 0.0, 0.0, 0.0, 0.0, 0.0, 0.0, 0.0, 0.0, 1.6953697645132587E9, 0.0, 2023-09-22 10:02:44.513
234.0, 3362.8870085343133, 187500.0, 187500.0, 187500.0, 187500.0, 187500.0, 187500.0, 187500.0, 0.038, 0.16, 0.988, 192.0, 0.0, 0.0, 0.0, 0.0, 0.0, 0.0, 0.0, 0.0, 0.0, 1.6953697645132835E9, 0.0, 2023-09-22 10:02:44.513
235.0, 3362.350566667386, 187500.0, 187500.0, 187500.0, 187500.0, 187500.0, 187500.0, 187500.0, 0.038, 0.16, 0.988, 192.0, 0.0, 0.0, 0.0, 0.0, 0.0, 0.0, 0.0, 0.0, 0.0, 1.69536976451331E9, 0.0, 2023-09-22 10:02:44.513
236.0, 3328.9570604511573, 187500.0, 187500.0, 187500.0, 187500.0, 187500.0, 187500.0, 187500.0, 0.038, 0.16, 0.988, 192.0, 0.0, 0.0, 0.0, 0.0, 0.0, 0.0, 0.0, 0.0, 0.0, 1.6953697645133371E9, 0.0, 2023-09-22 10:02:44.513
237.0, 3310.427464297708, 187500.0, 187500.0, 187500.0, 187500.0, 187500.0, 187500.0, 187500.0, 0.034, 0.16, 0.986, 192.0, 1.0, 16.0, 5.0, 0.0, 30.0, 208.0, 0.0, 0.0, 0.0, 1.6953697645133646E9, 0.0, 2023-09-22 10:02:44.513
238.0, 3300.5256415040067, 187500.0, 187500.0, 187500.0, 187500.0, 187500.0, 187500.0, 187500.0, 0.034, 0.16, 0.986, 192.0, 0.0, 0.0, 0.0, 0.0, 0.0, 0.0, 0.0, 0.0, 0.0, 1.6953697645133896E9, 0.0, 2023-09-22 10:02:44.513
239.0, 3301.039731626479, 187500.0, 187500.0, 187500.0, 187500.0, 187500.0, 187500.0, 187500.0, 0.034, 0.16, 0.986, 192.0, 0.0, 0.0, 0.0, 0.0, 0.0, 0.0, 0.0, 0.0, 0.0, 1.6953697645134132E9, 0.0, 2023-09-22 10:02:44.513
240.0, 3335.193197154188, 187500.0, 187500.0, 187500.0, 187500.0, 187500.0, 187500.0, 187500.0, 0.034, 0.16, 0.986, 192.0, 0.0, 0.0, 0.0, 0.0, 0.0, 0.0, 0.0, 0.0, 0.0, 1.6953697645134368E9, 0.0, 2023-09-22 10:02:44.513
241.0, 3354.8627322748584, 187500.0, 187500.0, 187500.0, 187500.0, 187500.0, 187500.0, 187500.0, 0.034, 0.16, 0.986, 192.0, 0.0, 0.0, 0.0, 0.0, 0.0, 0.0, 0.0, 0.0, 0.0, 1.69536976451346E9, 0.0, 2023-09-22 10:02:44.513
242.0, 3364.228113201632, 187500.0, 187500.0, 187500.0, 187500.0, 187500.0, 187500.0, 187500.0, 0.034, 0.16, 0.986, 192.0, 0.0, 0.0, 0.0, 0.0, 0.0, 0.0, 0.0, 0.0, 0.0, 1.6953697645134847E9, 0.0, 2023-09-22 10:02:44.513
243.0, 3362.8870085343133, 187500.0, 187500.0, 187500.0, 187500.0, 187500.0, 187500.0, 187500.0, 0.034, 0.16, 0.986, 192.0, 0.0, 0.0, 0.0, 0.0, 0.0, 0.0, 0.0, 0.0, 0.0, 1.6953697645135128E9, 0.0, 2023-09-22 10:02:44.513
244.0, 3328.688839517694, 187500.0, 187500.0, 187500.0, 187500.0, 187500.0, 187500.0, 187500.0, 0.034, 0.16, 0.986, 192.0, 0.0, 0.0, 0.0, 0.0, 0.0, 0.0, 0.0, 0.0, 0.0, 1.6953697645135453E9, 0.0, 2023-09-22 10:02:44.513
245.0, 3310.2710020865206, 187500.0, 187500.0, 187500.0, 187500.0, 187500.0, 187500.0, 187500.0, 0.034, 0.16, 0.986, 192.0, 0.0, 0.0, 0.0, 0.0, 0.0, 0.0, 0.0, 0.0, 0.0, 1.6953697645135708E9, 0.0, 2023-09-22 10:02:44.513
246.0, 3301.4420630266745, 187500.0, 187500.0, 187500.0, 187500.0, 187500.0, 187500.0, 187500.0, 0.034, 0.16, 0.986, 192.0, 0.0, 0.0, 0.0, 0.0, 0.0, 0.0, 0.0, 0.0, 0.0, 1.6953697645135944E9, 0.0, 2023-09-22 10:02:44.513
247.0, 3301.978504893602, 187500.0, 187500.0, 187500.0, 187500.0, 187500.0, 187500.0, 187500.0, 0.038, 0.156, 0.988, 192.0, 1.0, 48.0, 4.0, 224.0, 30.0, 224.0, 0.0, 0.0, 0.0, 1.6953697645136175E9, 0.0, 2023-09-22 10:02:44.513
248.0, 3335.7966942544813, 187500.0, 187500.0, 187500.0, 187500.0, 187500.0, 187500.0, 187500.0, 0.038, 0.156, 0.988, 192.0, 0.0, 0.0, 0.0, 0.0, 0.0, 0.0, 0.0, 0.0, 0.0, 1.6953697645136392E9, 0.0, 2023-09-22 10:02:44.513
249.0, 3353.7898485410037, 187500.0, 187500.0, 187500.0, 187500.0, 187500.0, 187500.0, 187500.0, 0.038, 0.156, 0.988, 192.0, 0.0, 0.0, 0.0, 0.0, 0.0, 0.0, 0.0, 0.0, 0.0, 1.6953697645136642E9, 0.0, 2023-09-22 10:02:44.513
250.0, 3363.490505634607, 187500.0, 187500.0, 187500.0, 187500.0, 187500.0, 187500.0, 187500.0, 0.038, 0.156, 0.988, 192.0, 0.0, 0.0, 0.0, 0.0, 0.0, 0.0, 0.0, 0.0, 0.0, 1.695369764513686E9, 0.0, 2023-09-22 10:02:44.513
251.0, 3363.132877723322, 187500.0, 187500.0, 187500.0, 187500.0, 187500.0, 187500.0, 187500.0, 0.038, 0.156, 0.988, 192.0, 0.0, 0.0, 0.0, 0.0, 0.0, 0.0, 0.0, 0.0, 0.0, 1.69536976451371E9, 0.0, 2023-09-22 10:02:44.513
252.0, 3329.426447084719, 187500.0, 187500.0, 187500.0, 187500.0, 187500.0, 187500.0, 187500.0, 0.038, 0.156, 0.988, 192.0, 0.0, 0.0, 0.0, 0.0, 0.0, 0.0, 0.0, 0.0, 0.0, 1.695369764513736E9, 0.0, 2023-09-22 10:02:44.513
253.0, 3310.427464297708, 187500.0, 187500.0, 187500.0, 187500.0, 187500.0, 187500.0, 187500.0, 0.038, 0.156, 0.988, 192.0, 0.0, 0.0, 0.0, 0.0, 0.0, 0.0, 0.0, 0.0, 0.0, 1.695369764513759E9, 0.0, 2023-09-22 10:02:44.513
254.0, 3300.324475803909, 187500.0, 187500.0, 187500.0, 187500.0, 187500.0, 187500.0, 187500.0, 0.038, 0.156, 0.988, 192.0, 0.0, 0.0, 0.0, 0.0, 0.0, 0.0, 0.0, 0.0, 0.0, 1.69536976451378E9, 0.0, 2023-09-22 10:02:44.513
255.0, 3301.062083370934, 187500.0, 187500.0, 187500.0, 187500.0, 187500.0, 187500.0, 187500.0, 0.038, 0.156, 0.988, 192.0, 0.0, 0.0, 0.0, 0.0, 0.0, 0.0, 0.0, 0.0, 0.0, 1.6953697645138028E9, 0.0, 2023-09-22 10:02:44.513
0.0, 3335.528473321018, 187500.0, 187500.0, 187500.0, 187500.0, 187500.0, 187500.0, 187500.0, 0.038, 0.156, 0.988, 192.0, 0.0, 0.0, 0.0, 0.0, 0.0, 0.0, 0.0, 0.0, 0.0, 1.6953697645138245E9, 0.0, 2023-09-22 10:02:44.513
1.0, 3354.8850840193136, 187500.0, 187500.0, 187500.0, 187500.0, 187500.0, 187500.0, 187500.0, 0.04, 0.158, 0.984, 192.0, 1.0, 64.0, 4.0, 240.0, 30.0, 192.0, 0.0, 0.0, 0.0, 1.6953697645138493E9, 0.0, 2023-09-22 10:02:44.513
2.0, 3364.250464946087, 187500.0, 187500.0, 187500.0, 187500.0, 187500.0, 187500.0, 187500.0, 0.04, 0.158, 0.984, 192.0, 0.0, 0.0, 0.0, 0.0, 0.0, 0.0, 0.0, 0.0, 0.0, 1.695369764513871E9, 0.0, 2023-09-22 10:02:44.513
3.0, 3362.5070288785732, 187500.0, 187500.0, 187500.0, 187500.0, 187500.0, 187500.0, 187500.0, 0.04, 0.158, 0.984, 192.0, 0.0, 0.0, 0.0, 0.0, 0.0, 0.0, 0.0, 0.0, 0.0, 1.6953697645138943E9, 0.0, 2023-09-22 10:02:44.513
4.0, 3328.934708706702, 187500.0, 187500.0, 187500.0, 187500.0, 187500.0, 187500.0, 187500.0, 0.04, 0.158, 0.984, 192.0, 0.0, 0.0, 0.0, 0.0, 0.0, 0.0, 0.0, 0.0, 0.0, 1.6953697645139182E9, 0.0, 2023-09-22 10:02:44.513
5.0, 3310.6062782533504, 187500.0, 187500.0, 187500.0, 187500.0, 187500.0, 187500.0, 187500.0, 0.04, 0.158, 0.984, 192.0, 0.0, 0.0, 0.0, 0.0, 0.0, 0.0, 0.0, 0.0, 0.0, 1.6953697645139399E9, 0.0, 2023-09-22 10:02:44.513
6.0, 3301.3750077933087, 187500.0, 187500.0, 187500.0, 187500.0, 187500.0, 187500.0, 187500.0, 0.04, 0.158, 0.984, 192.0, 0.0, 0.0, 0.0, 0.0, 0.0, 0.0, 0.0, 0.0, 0.0, 1.695369764513963E9, 0.0, 2023-09-22 10:02:44.513
7.0, 3301.419711282219, 187500.0, 187500.0, 187500.0, 187500.0, 187500.0, 187500.0, 187500.0, 0.04, 0.158, 0.984, 192.0, 0.0, 0.0, 0.0, 0.0, 0.0, 0.0, 0.0, 0.0, 0.0, 1.6953697645139868E9, 0.0, 2023-09-22 10:02:44.513
8.0, 3334.7238105206266, 187500.0, 187500.0, 187500.0, 187500.0, 187500.0, 187500.0, 187500.0, 0.04, 0.158, 0.984, 192.0, 0.0, 0.0, 0.0, 0.0, 0.0, 0.0, 0.0, 0.0, 0.0, 1.6953697645140104E9, 0.0, 2023-09-22 10:02:44.514
9.0, 3353.834552029914, 187500.0, 187500.0, 187500.0, 187500.0, 187500.0, 187500.0, 187500.0, 0.04, 0.158, 0.984, 192.0, 0.0, 0.0, 0.0, 0.0, 0.0, 0.0, 0.0, 0.0, 0.0, 1.6953697645140336E9, 0.0, 2023-09-22 10:02:44.514
10.0, 3363.7140230791597, 187500.0, 187500.0, 187500.0, 187500.0, 187500.0, 187500.0, 187500.0, 0.04, 0.158, 0.984, 192.0, 0.0, 0.0, 0.0, 0.0, 0.0, 0.0, 0.0, 0.0, 0.0, 1.695369764514058E9, 0.0, 2023-09-22 10:02:44.514
11.0, 3363.3340434234196, 187500.0, 187500.0, 187500.0, 187500.0, 187500.0, 187500.0, 187500.0, 0.038, 0.158, 0.988, 192.0, 1.0, 48.0, 4.0, 240.0, 30.0, 224.0, 0.0, 0.0, 0.0, 1.6953697645140803E9, 0.0, 2023-09-22 10:02:44.514
12.0, 3329.0464674289788, 187500.0, 187500.0, 187500.0, 187500.0, 187500.0, 187500.0, 187500.0, 0.038, 0.158, 0.988, 192.0, 0.0, 0.0, 0.0, 0.0, 0.0, 0.0, 0.0, 0.0, 0.0, 1.6953697645141027E9, 0.0, 2023-09-22 10:02:44.514
13.0, 3309.7569119640484, 187500.0, 187500.0, 187500.0, 187500.0, 187500.0, 187500.0, 187500.0, 0.038, 0.158, 0.988, 192.0, 0.0, 0.0, 0.0, 0.0, 0.0, 0.0, 0.0, 0.0, 0.0, 1.695369764514125E9, 0.0, 2023-09-22 10:02:44.514
14.0, 3300.2127170816325, 187500.0, 187500.0, 187500.0, 187500.0, 187500.0, 187500.0, 187500.0, 0.038, 0.158, 0.988, 192.0, 0.0, 0.0, 0.0, 0.0, 0.0, 0.0, 0.0, 0.0, 0.0, 1.6953697645141482E9, 0.0, 2023-09-22 10:02:44.514
15.0, 3301.8443944268697, 187500.0, 187500.0, 187500.0, 187500.0, 187500.0, 187500.0, 187500.0, 0.038, 0.158, 0.988, 192.0, 0.0, 0.0, 0.0, 0.0, 0.0, 0.0, 0.0, 0.0, 0.0, 1.6953697645141711E9, 0.0, 2023-09-22 10:02:44.514
16.0, 3335.9531564656686, 187500.0, 187500.0, 187500.0, 187500.0, 187500.0, 187500.0, 187500.0, 0.038, 0.158, 0.988, 192.0, 0.0, 0.0, 0.0, 0.0, 0.0, 0.0, 0.0, 0.0, 0.0, 1.6953697645142012E9, 0.0, 2023-09-22 10:02:44.514
17.0, 3354.5721595969394, 187500.0, 187500.0, 187500.0, 187500.0, 187500.0, 187500.0, 187500.0, 0.038, 0.158, 0.988, 192.0, 0.0, 0.0, 0.0, 0.0, 0.0, 0.0, 0.0, 0.0, 0.0, 1.6953697645142283E9, 0.0, 2023-09-22 10:02:44.514
18.0, 3363.199932956688, 187500.0, 187500.0, 187500.0, 187500.0, 187500.0, 187500.0, 187500.0, 0.038, 0.158, 0.988, 192.0, 0.0, 0.0, 0.0, 0.0, 0.0, 0.0, 0.0, 0.0, 0.0, 1.695369764514255E9, 0.0, 2023-09-22 10:02:44.514
