%OpenBCI Raw EXG Data
%Number of channels = 8
%Sample Rate = 250 Hz
%Board = OpenBCI_GUI$BoardCytonSerial
Sample Index, EXG Channel 0, EXG Channel 1, EXG Channel 2, EXG Channel 3, EXG Channel 4, EXG Channel 5, EXG Channel 6, EXG Channel 7, Accel Channel 0, Accel Channel 1, Accel Channel 2, Other, Other, Other, Other, Other, Other, Other, Analog Channel 0, Analog Channel 1, Analog Channel 2, Timestamp, Other, Timestamp (Formatted)
0.0, 0.0, 0.0, 0.0, 0.0, 0.0, 0.0, 0.0, 0.0, 0.0, 0.0, 0.0, 192.0, 0.0, 0.0, 0.0, 0.0, 0.0, 0.0, 0.0, 0.0, 0.0, 1.6953714651740155E9, 0.0, 2023-09-22 10:31:05.174
1.0, 4084.0883951292512, 187500.0, -187500.02235174447, -187500.02235174447, 187500.0, -187500.02235174447, -187500.02235174447, 187500.0, 0.036000000000000004, -0.008, 1.004, 192.0, 1.0, 32.0, 255.0, 192.0, 31.0, 96.0, 0.0, 0.0, 0.0, 1.6953714656538436E9, 0.0, 2023-09-22 10:31:05.653
2.0, 6883.465574200818, 187500.0, -187500.02235174447, -187500.02235174447, 187500.0, -187500.02235174447, -187500.02235174447, 187500.0, 0.036000000000000004, -0.008, 1.004, 192.0, 0.0, 0.0, 0.0, 0.0, 0.0, 0.0, 0.0, 0.0, 0.0, 1.69537146565396E9, 0.0, 2023-09-22 10:31:05.653
3.0, 9240.233509568396, 187500.0, -187500.02235174447, -187500.02235174447, 187500.0, -187500.02235174447, -187500.02235174447, 187500.0, 0.036000000000000004, -0.008, 1.004, 192.0, 0.0, 0.0, 0.0, 0.0, 0.0, 0.0, 0.0, 0.0, 0.0, 1.695371465654055E9, 0.0, 2023-09-22 10:31:05.654
4.0, 11026.137891547429, 187500.0, -187500.02235174447, -187500.02235174447, 187500.0, -187500.02235174447, -187500.02235174447, 187500.0, 0.036000000000000004, -0.008, 1.004, 192.0, 0.0, 0.0, 0.0, 0.0, 0.0, 0.0, 0.0, 0.0, 0.0, 1.695371465654101E9, 0.0, 2023-09-22 10:31:05.654
5.0, 9878.800496912063, 187500.0, -187500.02235174447, -187500.02235174447, 187500.0, -187500.02235174447, -187500.02235174447, 187500.0, 0.036000000000000004, -0.008, 1.004, 192.0, 0.0, 0.0, 0.0, 0.0, 0.0, 0.0, 0.0, 0.0, 0.0, 1.695371465654146E9, 0.0, 2023-09-22 10:31:05.654
6.0, 6738.916842808348, 187500.0, -187500.02235174447, -187500.02235174447, 187500.0, -187500.02235174447, -187500.02235174447, 187500.0, 0.036000000000000004, -0.008, 1.004, 192.0, 0.0, 0.0, 0.0, 0.0, 0.0, 0.0, 0.0, 0.0, 0.0, 1.695371465654189E9, 0.0, 2023-09-22 10:31:05.654
7.0, 4060.0826215842512, 187500.0, -187500.02235174447, -187500.02235174447, 187500.0, -187500.02235174447, -187500.02235174447, 187500.0, 0.036000000000000004, -0.008, 1.004, 192.0, 0.0, 0.0, 0.0, 0.0, 0.0, 0.0, 0.0, 0.0, 0.0, 1.6953714656542327E9, 0.0, 2023-09-22 10:31:05.654
8.0, 2053.767687531434, 187500.0, -187500.02235174447, -187500.02235174447, 187500.0, -187500.02235174447, -187500.02235174447, 187500.0, 0.032, -0.01, 1.006, 192.0, 1.0, 0.0, 255.0, 176.0, 31.0, 112.0, 0.0, 0.0, 0.0, 1.695371465654276E9, 0.0, 2023-09-22 10:31:05.654
9.0, 3025.845053892738, 187500.0, -187500.02235174447, -187500.02235174447, 187500.0, -187500.02235174447, -187500.02235174447, 187500.0, 0.032, -0.01, 1.006, 192.0, 0.0, 0.0, 0.0, 0.0, 0.0, 0.0, 0.0, 0.0, 0.0, 1.6953714656543212E9, 0.0, 2023-09-22 10:31:05.654
10.0, 6032.355848831636, 187500.0, -187500.02235174447, -187500.02235174447, 187500.0, -187500.02235174447, -187500.02235174447, 187500.0, 0.032, -0.01, 1.006, 192.0, 0.0, 0.0, 0.0, 0.0, 0.0, 0.0, 0.0, 0.0, 0.0, 1.695371465654362E9, 0.0, 2023-09-22 10:31:05.654
11.0, 8513.39948337072, 187500.0, -187500.02235174447, -187500.02235174447, 187500.0, -187500.02235174447, -187500.02235174447, 187500.0, 0.032, -0.01, 1.006, 192.0, 0.0, 0.0, 0.0, 0.0, 0.0, 0.0, 0.0, 0.0, 0.0, 1.6953714656544015E9, 0.0, 2023-09-22 10:31:05.654
12.0, 10310.144461410579, 187500.0, -187500.02235174447, -187500.02235174447, 187500.0, -187500.02235174447, -187500.02235174447, 187500.0, 0.032, -0.01, 1.006, 192.0, 0.0, 0.0, 0.0, 0.0, 0.0, 0.0, 0.0, 0.0, 0.0, 1.69537146565444E9, 0.0, 2023-09-22 10:31:05.654
13.0, 9196.982884047377, 187500.0, -187500.02235174447, -187500.02235174447, 187500.0, -187500.02235174447, -187500.02235174447, 187500.0, 0.032, -0.01, 1.006, 192.0, 0.0, 0.0, 0.0, 0.0, 0.0, 0.0, 0.0, 0.0, 0.0, 1.69537146565448E9, 0.0, 2023-09-22 10:31:05.654
14.0, 6160.140771882627, 187500.0, -187500.02235174447, -187500.02235174447, 187500.0, -187500.02235174447, -187500.02235174447, 187500.0, 0.032, -0.01, 1.006, 192.0, 0.0, 0.0, 0.0, 0.0, 0.0, 0.0, 0.0, 0.0, 0.0, 1.6953714656545265E9, 0.0, 2023-09-22 10:31:05.654
15.0, 3586.7397292542137, 187500.0, -187500.02235174447, -187500.02235174447, 187500.0, -187500.02235174447, -187500.02235174447, 187500.0, 0.032, -0.01, 1.006, 192.0, 0.0, 0.0, 0.0, 0.0, 0.0, 0.0, 0.0, 0.0, 0.0, 1.6953714656545715E9, 0.0, 2023-09-22 10:31:05.654
16.0, 1602.2400977897762, 187500.0, -187500.02235174447, -187500.02235174447, 187500.0, -187500.02235174447, -187500.02235174447, 187500.0, 0.032, -0.01, 1.006, 192.0, 0.0, 0.0, 0.0, 0.0, 0.0, 0.0, 0.0, 0.0, 0.0, 1.6953714656552763E9, 0.0, 2023-09-22 10:31:05.655
17.0, 2582.721720066276, 187500.0, -187500.02235174447, -187500.02235174447, 187500.0, -187500.02235174447, -187500.02235174447, 187500.0, 0.032, -0.01, 1.006, 192.0, 0.0, 0.0, 0.0, 0.0, 0.0, 0.0, 0.0, 0.0, 0.0, 1.6953714656553252E9, 0.0, 2023-09-22 10:31:05.655
18.0, 5534.224871900663, 187500.0, -187500.02235174447, -187500.02235174447, 187500.0, -187500.02235174447, -187500.02235174447, 187500.0, 0.036000000000000004, -0.008, 1.004, 192.0, 1.0, 32.0, 255.0, 192.0, 31.0, 96.0, 0.0, 0.0, 0.0, 1.695371465655367E9, 0.0, 2023-09-22 10:31:05.655
19.0, 8078.881571159551, 187500.0, -187500.02235174447, -187500.02235174447, 187500.0, -187500.02235174447, -187500.02235174447, 187500.0, 0.036000000000000004, -0.008, 1.004, 192.0, 0.0, 0.0, 0.0, 0.0, 0.0, 0.0, 0.0, 0.0, 0.0, 1.6953714656554155E9, 0.0, 2023-09-22 10:31:05.655
20.0, 9981.082079539548, 187500.0, -187500.02235174447, -187500.02235174447, 187500.0, -187500.02235174447, -187500.02235174447, 187500.0, 0.036000000000000004, -0.008, 1.004, 192.0, 0.0, 0.0, 0.0, 0.0, 0.0, 0.0, 0.0, 0.0, 0.0, 1.695371465655458E9, 0.0, 2023-09-22 10:31:05.655
21.0, 8865.439458541807, 187500.0, -187500.02235174447, -187500.02235174447, 187500.0, -187500.02235174447, -187500.02235174447, 187500.0, 0.036000000000000004, -0.008, 1.004, 192.0, 0.0, 0.0, 0.0, 0.0, 0.0, 0.0, 0.0, 0.0, 0.0, 1.6953714656554987E9, 0.0, 2023-09-22 10:31:05.655
22.0, 5798.735415784767, 187500.0, -187500.02235174447, -187500.02235174447, 187500.0, -187500.02235174447, -187500.02235174447, 187500.0, 0.036000000000000004, -0.008, 1.004, 192.0, 0.0, 0.0, 0.0, 0.0, 0.0, 0.0, 0.0, 0.0, 0.0, 1.695371465655545E9, 0.0, 2023-09-22 10:31:05.655
23.0, 3204.9272304686583, 187500.0, -187500.02235174447, -187500.02235174447, 187500.0, -187500.02235174447, -187500.02235174447, 187500.0, 0.036000000000000004, -0.008, 1.004, 192.0, 0.0, 0.0, 0.0, 0.0, 0.0, 0.0, 0.0, 0.0, 0.0, 1.6953714656556172E9, 0.0, 2023-09-22 10:31:05.655
24.0, 1264.7287565146396, 187500.0, -187500.02235174447, -187500.02235174447, 187500.0, -187500.02235174447, -187500.02235174447, 187500.0, 0.036000000000000004, -0.008, 1.004, 192.0, 0.0, 0.0, 0.0, 0.0, 0.0, 0.0, 0.0, 0.0, 0.0, 1.69537146565566E9, 0.0, 2023-09-22 10:31:05.655
25.0, 2309.114016188862, 187500.0, -187500.02235174447, -187500.02235174447, 187500.0, -187500.02235174447, -187500.02235174447, 187500.0, 0.036000000000000004, -0.008, 1.004, 192.0, 0.0, 0.0, 0.0, 0.0, 0.0, 0.0, 0.0, 0.0, 0.0, 1.695371465655702E9, 0.0, 2023-09-22 10:31:05.655
26.0, 5309.85806105829, 187500.0, -187500.02235174447, -187500.02235174447, 187500.0, -187500.02235174447, -187500.02235174447, 187500.0, 0.036000000000000004, -0.008, 1.004, 192.0, 0.0, 0.0, 0.0, 0.0, 0.0, 0.0, 0.0, 0.0, 0.0, 1.695371465655751E9, 0.0, 2023-09-22 10:31:05.655
27.0, 7873.469039615279, 187500.0, -187500.02235174447, -187500.02235174447, 187500.0, -187500.02235174447, -187500.02235174447, 187500.0, 0.036000000000000004, -0.008, 1.004, 192.0, 0.0, 0.0, 0.0, 0.0, 0.0, 0.0, 0.0, 0.0, 0.0, 1.695371465655797E9, 0.0, 2023-09-22 10:31:05.655
28.0, 9771.31095782649, 187500.0, -187500.02235174447, -187500.02235174447, 187500.0, -187500.02235174447, -187500.02235174447, 187500.0, 0.038, -0.01, 1.002, 192.0, 1.0, 48.0, 255.0, 176.0, 31.0, 80.0, 0.0, 0.0, 0.0, 1.6953714656558473E9, 0.0, 2023-09-22 10:31:05.655
29.0, 8644.939499490201, 187500.0, -187500.02235174447, -187500.02235174447, 187500.0, -187500.02235174447, -187500.02235174447, 187500.0, 0.038, -0.01, 1.002, 192.0, 0.0, 0.0, 0.0, 0.0, 0.0, 0.0, 0.0, 0.0, 0.0, 1.6953714656558924E9, 0.0, 2023-09-22 10:31:05.655
30.0, 5585.924456825788, 187500.0, -187500.02235174447, -187500.02235174447, 187500.0, -187500.02235174447, -187500.02235174447, 187500.0, 0.038, -0.01, 1.002, 192.0, 0.0, 0.0, 0.0, 0.0, 0.0, 0.0, 0.0, 0.0, 0.0, 1.69537146565594E9, 0.0, 2023-09-22 10:31:05.655
31.0, 3009.4612252069983, 187500.0, -187500.02235174447, -187500.02235174447, 187500.0, -187500.02235174447, -187500.02235174447, 187500.0, 0.038, -0.01, 1.002, 192.0, 0.0, 0.0, 0.0, 0.0, 0.0, 0.0, 0.0, 0.0, 0.0, 1.6953714656561751E9, 0.0, 2023-09-22 10:31:05.656
32.0, 1086.5630014613869, 187500.0, -187500.02235174447, -187500.02235174447, 187500.0, -187500.02235174447, -187500.02235174447, 187500.0, 0.038, -0.01, 1.002, 192.0, 0.0, 0.0, 0.0, 0.0, 0.0, 0.0, 0.0, 0.0, 0.0, 1.6953714656562304E9, 0.0, 2023-09-22 10:31:05.656
33.0, 2129.8753774017546, 187500.0, -187500.02235174447, -187500.02235174447, 187500.0, -187500.02235174447, -187500.02235174447, 187500.0, 0.038, -0.01, 1.002, 192.0, 0.0, 0.0, 0.0, 0.0, 0.0, 0.0, 0.0, 0.0, 0.0, 1.6953714656562898E9, 0.0, 2023-09-22 10:31:05.656
34.0, 5111.86630867318, 187500.0, -187500.02235174447, -187500.02235174447, 187500.0, -187500.02235174447, -187500.02235174447, 187500.0, 0.038, -0.01, 1.002, 192.0, 0.0, 0.0, 0.0, 0.0, 0.0, 0.0, 0.0, 0.0, 0.0, 1.6953714656563408E9, 0.0, 2023-09-22 10:31:05.656
35.0, 7674.449106985225, 187500.0, -187500.02235174447, -187500.02235174447, 187500.0, -187500.02235174447, -187500.02235174447, 187500.0, 0.038, -0.01, 1.002, 192.0, 0.0, 0.0, 0.0, 0.0, 0.0, 0.0, 0.0, 0.0, 0.0, 1.6953714656563933E9, 0.0, 2023-09-22 10:31:05.656
36.0, 9553.448504620614, 187500.0, -187500.02235174447, -187500.02235174447, 187500.0, -187500.02235174447, -187500.02235174447, 187500.0, 0.038, -0.01, 1.002, 192.0, 0.0, 0.0, 0.0, 0.0, 0.0, 0.0, 0.0, 0.0, 0.0, 1.6953714656564438E9, 0.0, 2023-09-22 10:31:05.656
37.0, 8472.20521833959, 187500.0, -187500.02235174447, -187500.02235174447, 187500.0, -187500.02235174447, -187500.02235174447, 187500.0, 0.038, -0.01, 1.002, 192.0, 0.0, 0.0, 0.0, 0.0, 0.0, 0.0, 0.0, 0.0, 0.0, 1.695371465656481E9, 0.0, 2023-09-22 10:31:05.656
38.0, 5434.580795118904, 187500.0, -187500.02235174447, -187500.02235174447, 187500.0, -187500.02235174447, -187500.02235174447, 187500.0, 0.036000000000000004, -0.01, 0.998, 192.0, 1.0, 32.0, 255.0, 176.0, 31.0, 48.0, 0.0, 0.0, 0.0, 1.6953714656565063E9, 0.0, 2023-09-22 10:31:05.656
39.0, 2870.500429928354, 187500.0, -187500.02235174447, -187500.02235174447, 187500.0, -187500.02235174447, -187500.02235174447, 187500.0, 0.036000000000000004, -0.01, 0.998, 192.0, 0.0, 0.0, 0.0, 0.0, 0.0, 0.0, 0.0, 0.0, 0.0, 1.695371465656533E9, 0.0, 2023-09-22 10:31:05.656
40.0, 982.9179624221281, 187500.0, -187500.02235174447, -187500.02235174447, 187500.0, -187500.02235174447, -187500.02235174447, 187500.0, 0.036000000000000004, -0.01, 0.998, 192.0, 0.0, 0.0, 0.0, 0.0, 0.0, 0.0, 0.0, 0.0, 0.0, 1.6953714656565597E9, 0.0, 2023-09-22 10:31:05.656
41.0, 2034.4781320665043, 187500.0, -187500.02235174447, -187500.02235174447, 187500.0, -187500.02235174447, -187500.02235174447, 187500.0, 0.036000000000000004, -0.01, 0.998, 192.0, 0.0, 0.0, 0.0, 0.0, 0.0, 0.0, 0.0, 0.0, 0.0, 1.6953714656565852E9, 0.0, 2023-09-22 10:31:05.656
42.0, 4993.960856671436, 187500.0, -187500.02235174447, -187500.02235174447, 187500.0, -187500.02235174447, -187500.02235174447, 187500.0, 0.036000000000000004, -0.01, 0.998, 192.0, 0.0, 0.0, 0.0, 0.0, 0.0, 0.0, 0.0, 0.0, 0.0, 1.6953714656566148E9, 0.0, 2023-09-22 10:31:05.656
43.0, 7543.020849588019, 187500.0, -187500.02235174447, -187500.02235174447, 187500.0, -187500.02235174447, -187500.02235174447, 187500.0, 0.036000000000000004, -0.01, 0.998, 192.0, 0.0, 0.0, 0.0, 0.0, 0.0, 0.0, 0.0, 0.0, 0.0, 1.6953714656566436E9, 0.0, 2023-09-22 10:31:05.656
44.0, 9474.21157052655, 187500.0, -187500.02235174447, -187500.02235174447, 187500.0, -187500.02235174447, -187500.02235174447, 187500.0, 0.036000000000000004, -0.01, 0.998, 192.0, 0.0, 0.0, 0.0, 0.0, 0.0, 0.0, 0.0, 0.0, 0.0, 1.6953714656566913E9, 0.0, 2023-09-22 10:31:05.656
45.0, 8413.040150766392, 187500.0, -187500.02235174447, -187500.02235174447, 187500.0, -187500.02235174447, -187500.02235174447, 187500.0, 0.036000000000000004, -0.01, 0.998, 192.0, 0.0, 0.0, 0.0, 0.0, 0.0, 0.0, 0.0, 0.0, 0.0, 1.6953714656567173E9, 0.0, 2023-09-22 10:31:05.656
46.0, 5391.35252134234, 187500.0, -187500.02235174447, -187500.02235174447, 187500.0, -187500.02235174447, -187500.02235174447, 187500.0, 0.036000000000000004, -0.01, 0.998, 192.0, 0.0, 0.0, 0.0, 0.0, 0.0, 0.0, 0.0, 0.0, 0.0, 1.695371465656787E9, 0.0, 2023-09-22 10:31:05.656
47.0, 2788.3354173106454, 187500.0, -187500.02235174447, -187500.02235174447, 187500.0, -187500.02235174447, -187500.02235174447, 187500.0, 0.034, -0.01, 1.006, 192.0, 1.0, 16.0, 255.0, 176.0, 31.0, 112.0, 0.0, 0.0, 0.0, 1.6953714656568196E9, 0.0, 2023-09-22 10:31:05.656
48.0, 825.5169779678557, 187500.0, -187500.02235174447, -187500.02235174447, 187500.0, -187500.02235174447, -187500.02235174447, 187500.0, 0.034, -0.01, 1.006, 192.0, 0.0, 0.0, 0.0, 0.0, 0.0, 0.0, 0.0, 0.0, 0.0, 1.6953714656568768E9, 0.0, 2023-09-22 10:31:05.656
49.0, 1895.5396885323155, 187500.0, -187500.02235174447, -187500.02235174447, 187500.0, -187500.02235174447, -187500.02235174447, 187500.0, 0.034, -0.01, 1.006, 192.0, 0.0, 0.0, 0.0, 0.0, 0.0, 0.0, 0.0, 0.0, 0.0, 1.6953714656569276E9, 0.0, 2023-09-22 10:31:05.656
50.0, 4919.931879035459, 187500.0, -187500.02235174447, -187500.02235174447, 187500.0, -187500.02235174447, -187500.02235174447, 187500.0, 0.034, -0.01, 1.006, 192.0, 0.0, 0.0, 0.0, 0.0, 0.0, 0.0, 0.0, 0.0, 0.0, 1.6953714656569688E9, 0.0, 2023-09-22 10:31:05.656
51.0, 7487.029729727475, 187500.0, -187500.02235174447, -187500.02235174447, 187500.0, -187500.02235174447, -187500.02235174447, 187500.0, 0.034, -0.01, 1.006, 192.0, 0.0, 0.0, 0.0, 0.0, 0.0, 0.0, 0.0, 0.0, 0.0, 1.6953714656570168E9, 0.0, 2023-09-22 10:31:05.657
52.0, 9375.908598412108, 187500.0, -187500.02235174447, -187500.02235174447, 187500.0, -187500.02235174447, -187500.02235174447, 187500.0, 0.034, -0.01, 1.006, 192.0, 0.0, 0.0, 0.0, 0.0, 0.0, 0.0, 0.0, 0.0, 0.0, 1.6953714656570597E9, 0.0, 2023-09-22 10:31:05.657
53.0, 8248.620718553153, 187500.0, -187500.02235174447, -187500.02235174447, 187500.0, -187500.02235174447, -187500.02235174447, 187500.0, 0.034, -0.01, 1.006, 192.0, 0.0, 0.0, 0.0, 0.0, 0.0, 0.0, 0.0, 0.0, 0.0, 1.6953714656571069E9, 0.0, 2023-09-22 10:31:05.657
54.0, 5215.980734346001, 187500.0, -187500.02235174447, -187500.02235174447, 187500.0, -187500.02235174447, -187500.02235174447, 187500.0, 0.034, -0.01, 1.006, 192.0, 0.0, 0.0, 0.0, 0.0, 0.0, 0.0, 0.0, 0.0, 0.0, 1.695371465657153E9, 0.0, 2023-09-22 10:31:05.657
55.0, 2661.444564037867, 187500.0, -187500.02235174447, -187500.02235174447, 187500.0, -187500.02235174447, -187500.02235174447, 187500.0, 0.034, -0.01, 1.006, 192.0, 0.0, 0.0, 0.0, 0.0, 0.0, 0.0, 0.0, 0.0, 0.0, 1.6953714656571915E9, 0.0, 2023-09-22 10:31:05.657
56.0, 732.1760931224934, 187500.0, -187500.02235174447, -187500.02235174447, 187500.0, -187500.02235174447, -187500.02235174447, 187500.0, 0.034, -0.01, 1.006, 192.0, 0.0, 0.0, 0.0, 0.0, 0.0, 0.0, 0.0, 0.0, 0.0, 1.6953714656572328E9, 0.0, 2023-09-22 10:31:05.657
57.0, 1781.076405176688, 187500.0, -187500.02235174447, -187500.02235174447, 187500.0, -187500.02235174447, -187500.02235174447, 187500.0, 0.044, -0.01, 1.008, 192.0, 1.0, 96.0, 255.0, 176.0, 31.0, 128.0, 0.0, 0.0, 0.0, 1.6953714656572733E9, 0.0, 2023-09-22 10:31:05.657
58.0, 4831.709543670362, 187500.0, -187500.02235174447, -187500.02235174447, 187500.0, -187500.02235174447, -187500.02235174447, 187500.0, 0.044, -0.01, 1.008, 192.0, 0.0, 0.0, 0.0, 0.0, 0.0, 0.0, 0.0, 0.0, 0.0, 1.6953714656573226E9, 0.0, 2023-09-22 10:31:05.657
59.0, 7419.505109727992, 187500.0, -187500.02235174447, -187500.02235174447, 187500.0, -187500.02235174447, -187500.02235174447, 187500.0, 0.044, -0.01, 1.008, 192.0, 0.0, 0.0, 0.0, 0.0, 0.0, 0.0, 0.0, 0.0, 0.0, 1.6953714656573677E9, 0.0, 2023-09-22 10:31:05.657
60.0, 9320.096292507207, 187500.0, -187500.02235174447, -187500.02235174447, 187500.0, -187500.02235174447, -187500.02235174447, 187500.0, 0.044, -0.01, 1.008, 192.0, 0.0, 0.0, 0.0, 0.0, 0.0, 0.0, 0.0, 0.0, 0.0, 1.695371465657412E9, 0.0, 2023-09-22 10:31:05.657
61.0, 8224.525538030332, 187500.0, -187500.02235174447, -187500.02235174447, 187500.0, -187500.02235174447, -187500.02235174447, 187500.0, 0.044, -0.01, 1.008, 192.0, 0.0, 0.0, 0.0, 0.0, 0.0, 0.0, 0.0, 0.0, 0.0, 1.6953714656577616E9, 0.0, 2023-09-22 10:31:05.657
62.0, 5195.126556769199, 187500.0, -187500.02235174447, -187500.02235174447, 187500.0, -187500.02235174447, -187500.02235174447, 187500.0, 0.044, -0.01, 1.008, 192.0, 0.0, 0.0, 0.0, 0.0, 0.0, 0.0, 0.0, 0.0, 0.0, 1.695371465657816E9, 0.0, 2023-09-22 10:31:05.657
63.0, 2592.489432393245, 187500.0, -187500.02235174447, -187500.02235174447, 187500.0, -187500.02235174447, -187500.02235174447, 187500.0, 0.044, -0.01, 1.008, 192.0, 0.0, 0.0, 0.0, 0.0, 0.0, 0.0, 0.0, 0.0, 0.0, 1.6953714656578608E9, 0.0, 2023-09-22 10:31:05.657
64.0, 675.000330805818, 187500.0, -187500.02235174447, -187500.02235174447, 187500.0, -187500.02235174447, -187500.02235174447, 187500.0, 0.044, -0.01, 1.008, 192.0, 0.0, 0.0, 0.0, 0.0, 0.0, 0.0, 0.0, 0.0, 0.0, 1.695371465657903E9, 0.0, 2023-09-22 10:31:05.657
65.0, 1763.7538032238251, 187500.0, -187500.02235174447, -187500.02235174447, 187500.0, -187500.02235174447, -187500.02235174447, 187500.0, 0.044, -0.01, 1.008, 192.0, 0.0, 0.0, 0.0, 0.0, 0.0, 0.0, 0.0, 0.0, 0.0, 1.6953714656579576E9, 0.0, 2023-09-22 10:31:05.657
66.0, 4777.2159906883235, 187500.0, -187500.02235174447, -187500.02235174447, 187500.0, -187500.02235174447, -187500.02235174447, 187500.0, 0.044, -0.01, 1.008, 192.0, 0.0, 0.0, 0.0, 0.0, 0.0, 0.0, 0.0, 0.0, 0.0, 1.6953714656580064E9, 0.0, 2023-09-22 10:31:05.658
67.0, 7320.5092335354375, 187500.0, -187500.02235174447, -187500.02235174447, 187500.0, -187500.02235174447, -187500.02235174447, 187500.0, 0.038, -0.01, 1.008, 192.0, 1.0, 48.0, 255.0, 176.0, 31.0, 128.0, 0.0, 0.0, 0.0, 1.6953714656580613E9, 0.0, 2023-09-22 10:31:05.658
68.0, 9241.798131680267, 187500.0, -187500.02235174447, -187500.02235174447, 187500.0, -187500.02235174447, -187500.02235174447, 187500.0, 0.038, -0.01, 1.008, 192.0, 0.0, 0.0, 0.0, 0.0, 0.0, 0.0, 0.0, 0.0, 0.0, 1.6953714656581216E9, 0.0, 2023-09-22 10:31:05.658
69.0, 8165.516932668321, 187500.0, -187500.02235174447, -187500.02235174447, 187500.0, -187500.02235174447, -187500.02235174447, 187500.0, 0.038, -0.01, 1.008, 192.0, 0.0, 0.0, 0.0, 0.0, 0.0, 0.0, 0.0, 0.0, 0.0, 1.695371465658173E9, 0.0, 2023-09-22 10:31:05.658
70.0, 5137.816683985792, 187500.0, -187500.02235174447, -187500.02235174447, 187500.0, -187500.02235174447, -187500.02235174447, 187500.0, 0.038, -0.01, 1.008, 192.0, 0.0, 0.0, 0.0, 0.0, 0.0, 0.0, 0.0, 0.0, 0.0, 1.6953714656582196E9, 0.0, 2023-09-22 10:31:05.658
71.0, 2557.1513244094044, 187500.0, -187500.02235174447, -187500.02235174447, 187500.0, -187500.02235174447, -187500.02235174447, 187500.0, 0.038, -0.01, 1.008, 192.0, 0.0, 0.0, 0.0, 0.0, 0.0, 0.0, 0.0, 0.0, 0.0, 1.6953714656582758E9, 0.0, 2023-09-22 10:31:05.658
72.0, 650.5698741161674, 187500.0, -187500.02235174447, -187500.02235174447, 187500.0, -187500.02235174447, -187500.02235174447, 187500.0, 0.038, -0.01, 1.008, 192.0, 0.0, 0.0, 0.0, 0.0, 0.0, 0.0, 0.0, 0.0, 0.0, 1.6953714656583362E9, 0.0, 2023-09-22 10:31:05.658
73.0, 1680.5382586167168, 187500.0, -187500.02235174447, -187500.02235174447, 187500.0, -187500.02235174447, -187500.02235174447, 187500.0, 0.038, -0.01, 1.008, 192.0, 0.0, 0.0, 0.0, 0.0, 0.0, 0.0, 0.0, 0.0, 0.0, 1.6953714656583855E9, 0.0, 2023-09-22 10:31:05.658
74.0, 4711.971248623282, 187500.0, -187500.02235174447, -187500.02235174447, 187500.0, -187500.02235174447, -187500.02235174447, 187500.0, 0.038, -0.01, 1.008, 192.0, 0.0, 0.0, 0.0, 0.0, 0.0, 0.0, 0.0, 0.0, 0.0, 1.6953714656584291E9, 0.0, 2023-09-22 10:31:05.658
75.0, 7294.514154733915, 187500.0, -187500.02235174447, -187500.02235174447, 187500.0, -187500.02235174447, -187500.02235174447, 187500.0, 0.038, -0.01, 1.008, 192.0, 0.0, 0.0, 0.0, 0.0, 0.0, 0.0, 0.0, 0.0, 0.0, 1.695371465658472E9, 0.0, 2023-09-22 10:31:05.658
76.0, 9191.551410144737, 187500.0, -187500.02235174447, -187500.02235174447, 187500.0, -187500.02235174447, -187500.02235174447, 187500.0, 0.038, -0.01, 1.008, 192.0, 0.0, 0.0, 0.0, 0.0, 0.0, 0.0, 0.0, 0.0, 0.0, 1.695371465658643E9, 0.0, 2023-09-22 10:31:05.658
77.0, 8112.699760520431, 187500.0, -187500.02235174447, -187500.02235174447, 187500.0, -187500.02235174447, -187500.02235174447, 187500.0, 0.034, -0.008, 1.006, 192.0, 1.0, 16.0, 255.0, 192.0, 31.0, 112.0, 0.0, 0.0, 0.0, 1.6953714656586895E9, 0.0, 2023-09-22 10:31:05.658
78.0, 5093.113195075178, 187500.0, -187500.02235174447, -187500.02235174447, 187500.0, -187500.02235174447, -187500.02235174447, 187500.0, 0.034, -0.008, 1.006, 192.0, 0.0, 0.0, 0.0, 0.0, 0.0, 0.0, 0.0, 0.0, 0.0, 1.695371465658739E9, 0.0, 2023-09-22 10:31:05.658
79.0, 2524.8083501825754, 187500.0, -187500.02235174447, -187500.02235174447, 187500.0, -187500.02235174447, -187500.02235174447, 187500.0, 0.034, -0.008, 1.006, 192.0, 0.0, 0.0, 0.0, 0.0, 0.0, 0.0, 0.0, 0.0, 0.0, 1.6953714656587863E9, 0.0, 2023-09-22 10:31:05.658
80.0, 594.2434780887936, 187500.0, -187500.02235174447, -187500.02235174447, 187500.0, -187500.02235174447, -187500.02235174447, 187500.0, 0.034, -0.008, 1.006, 192.0, 0.0, 0.0, 0.0, 0.0, 0.0, 0.0, 0.0, 0.0, 0.0, 1.6953714656588376E9, 0.0, 2023-09-22 10:31:05.658
81.0, 1651.6374530360047, 187500.0, -187500.02235174447, -187500.02235174447, 187500.0, -187500.02235174447, -187500.02235174447, 187500.0, 0.034, -0.008, 1.006, 192.0, 0.0, 0.0, 0.0, 0.0, 0.0, 0.0, 0.0, 0.0, 0.0, 1.6953714656588874E9, 0.0, 2023-09-22 10:31:05.658
82.0, 4696.6826554158515, 187500.0, -187500.02235174447, -187500.02235174447, 187500.0, -187500.02235174447, -187500.02235174447, 187500.0, 0.034, -0.008, 1.006, 192.0, 0.0, 0.0, 0.0, 0.0, 0.0, 0.0, 0.0, 0.0, 0.0, 1.695371465658932E9, 0.0, 2023-09-22 10:31:05.658
83.0, 7236.556081361304, 187500.0, -187500.02235174447, -187500.02235174447, 187500.0, -187500.02235174447, -187500.02235174447, 187500.0, 0.034, -0.008, 1.006, 192.0, 0.0, 0.0, 0.0, 0.0, 0.0, 0.0, 0.0, 0.0, 0.0, 1.695371465658978E9, 0.0, 2023-09-22 10:31:05.658
84.0, 9158.895511495533, 187500.0, -187500.02235174447, -187500.02235174447, 187500.0, -187500.02235174447, -187500.02235174447, 187500.0, 0.034, -0.008, 1.006, 192.0, 0.0, 0.0, 0.0, 0.0, 0.0, 0.0, 0.0, 0.0, 0.0, 1.6953714656590211E9, 0.0, 2023-09-22 10:31:05.659
85.0, 8054.629928425543, 187500.0, -187500.02235174447, -187500.02235174447, 187500.0, -187500.02235174447, -187500.02235174447, 187500.0, 0.034, -0.008, 1.006, 192.0, 0.0, 0.0, 0.0, 0.0, 0.0, 0.0, 0.0, 0.0, 0.0, 1.6953714656590676E9, 0.0, 2023-09-22 10:31:05.659
86.0, 5020.961763973447, 187500.0, -187500.02235174447, -187500.02235174447, 187500.0, -187500.02235174447, -187500.02235174447, 187500.0, 0.034, -0.008, 1.006, 192.0, 0.0, 0.0, 0.0, 0.0, 0.0, 0.0, 0.0, 0.0, 0.0, 1.6953714656591165E9, 0.0, 2023-09-22 10:31:05.659
87.0, 2451.6063870914445, 187500.0, -187500.02235174447, -187500.02235174447, 187500.0, -187500.02235174447, -187500.02235174447, 187500.0, 0.038, -0.004, 1.008, 192.0, 1.0, 48.0, 255.0, 224.0, 31.0, 128.0, 0.0, 0.0, 0.0, 1.6953714656591837E9, 0.0, 2023-09-22 10:31:05.659
88.0, 531.3903726804701, 187500.0, -187500.02235174447, -187500.02235174447, 187500.0, -187500.02235174447, -187500.02235174447, 187500.0, 0.038, -0.004, 1.008, 192.0, 0.0, 0.0, 0.0, 0.0, 0.0, 0.0, 0.0, 0.0, 0.0, 1.695371465659239E9, 0.0, 2023-09-22 10:31:05.659
89.0, 1579.664835889916, 187500.0, -187500.02235174447, -187500.02235174447, 187500.0, -187500.02235174447, -187500.02235174447, 187500.0, 0.038, -0.004, 1.008, 192.0, 0.0, 0.0, 0.0, 0.0, 0.0, 0.0, 0.0, 0.0, 0.0, 1.6953714656592824E9, 0.0, 2023-09-22 10:31:05.659
90.0, 4618.608012033465, 187500.0, -187500.02235174447, -187500.02235174447, 187500.0, -187500.02235174447, -187500.02235174447, 187500.0, 0.038, -0.004, 1.008, 192.0, 0.0, 0.0, 0.0, 0.0, 0.0, 0.0, 0.0, 0.0, 0.0, 1.6953714656593273E9, 0.0, 2023-09-22 10:31:05.659
91.0, 7192.925476184545, 187500.0, -187500.02235174447, -187500.02235174447, 187500.0, -187500.02235174447, -187500.02235174447, 187500.0, 0.038, -0.004, 1.008, 192.0, 0.0, 0.0, 0.0, 0.0, 0.0, 0.0, 0.0, 0.0, 0.0, 1.6953714656594377E9, 0.0, 2023-09-22 10:31:05.659
92.0, 9103.105557335086, 187500.0, -187500.02235174447, -187500.02235174447, 187500.0, -187500.02235174447, -187500.02235174447, 187500.0, 0.038, -0.004, 1.008, 192.0, 0.0, 0.0, 0.0, 0.0, 0.0, 0.0, 0.0, 0.0, 0.0, 1.695371465659639E9, 0.0, 2023-09-22 10:31:05.659
93.0, 8029.126588002037, 187500.0, -187500.02235174447, -187500.02235174447, 187500.0, -187500.02235174447, -187500.02235174447, 187500.0, 0.038, -0.004, 1.008, 192.0, 0.0, 0.0, 0.0, 0.0, 0.0, 0.0, 0.0, 0.0, 0.0, 1.695371465659681E9, 0.0, 2023-09-22 10:31:05.659
94.0, 4981.443879776464, 187500.0, -187500.02235174447, -187500.02235174447, 187500.0, -187500.02235174447, -187500.02235174447, 187500.0, 0.038, -0.004, 1.008, 192.0, 0.0, 0.0, 0.0, 0.0, 0.0, 0.0, 0.0, 0.0, 0.0, 1.6953714656597233E9, 0.0, 2023-09-22 10:31:05.659
95.0, 2412.7814069725764, 187500.0, -187500.02235174447, -187500.02235174447, 187500.0, -187500.02235174447, -187500.02235174447, 187500.0, 0.038, -0.004, 1.008, 192.0, 0.0, 0.0, 0.0, 0.0, 0.0, 0.0, 0.0, 0.0, 0.0, 1.6953714656597655E9, 0.0, 2023-09-22 10:31:05.659
96.0, 506.3787706349815, 187500.0, -187500.02235174447, -187500.02235174447, 187500.0, -187500.02235174447, -187500.02235174447, 187500.0, 0.038, -0.004, 1.008, 192.0, 0.0, 0.0, 0.0, 0.0, 0.0, 0.0, 0.0, 0.0, 0.0, 1.6953714656598103E9, 0.0, 2023-09-22 10:31:05.659
97.0, 1570.5229724076955, 187500.0, -187500.02235174447, -187500.02235174447, 187500.0, -187500.02235174447, -187500.02235174447, 187500.0, 0.04, -0.008, 1.002, 192.0, 1.0, 64.0, 255.0, 192.0, 31.0, 80.0, 0.0, 0.0, 0.0, 1.6953714656598513E9, 0.0, 2023-09-22 10:31:05.659
98.0, 4583.895752894372, 187500.0, -187500.02235174447, -187500.02235174447, 187500.0, -187500.02235174447, -187500.02235174447, 187500.0, 0.04, -0.008, 1.002, 192.0, 0.0, 0.0, 0.0, 0.0, 0.0, 0.0, 0.0, 0.0, 0.0, 1.6953714656598926E9, 0.0, 2023-09-22 10:31:05.659
99.0, 7174.954673642478, 187500.0, -187500.02235174447, -187500.02235174447, 187500.0, -187500.02235174447, -187500.02235174447, 187500.0, 0.04, -0.008, 1.002, 192.0, 0.0, 0.0, 0.0, 0.0, 0.0, 0.0, 0.0, 0.0, 0.0, 1.6953714656599183E9, 0.0, 2023-09-22 10:31:05.659
100.0, 9124.987915156831, 187500.0, -187500.02235174447, -187500.02235174447, 187500.0, -187500.02235174447, -187500.02235174447, 187500.0, 0.04, -0.008, 1.002, 192.0, 0.0, 0.0, 0.0, 0.0, 0.0, 0.0, 0.0, 0.0, 0.0, 1.6953714656599448E9, 0.0, 2023-09-22 10:31:05.659
101.0, 8038.78254160673, 187500.0, -187500.02235174447, -187500.02235174447, 187500.0, -187500.02235174447, -187500.02235174447, 187500.0, 0.04, -0.008, 1.002, 192.0, 0.0, 0.0, 0.0, 0.0, 0.0, 0.0, 0.0, 0.0, 0.0, 1.6953714656599832E9, 0.0, 2023-09-22 10:31:05.659
102.0, 4961.439068488964, 187500.0, -187500.02235174447, -187500.02235174447, 187500.0, -187500.02235174447, -187500.02235174447, 187500.0, 0.04, -0.008, 1.002, 192.0, 0.0, 0.0, 0.0, 0.0, 0.0, 0.0, 0.0, 0.0, 0.0, 1.695371465660022E9, 0.0, 2023-09-22 10:31:05.660
103.0, 2364.3228249934705, 187500.0, -187500.02235174447, -187500.02235174447, 187500.0, -187500.02235174447, -187500.02235174447, 187500.0, 0.04, -0.008, 1.002, 192.0, 0.0, 0.0, 0.0, 0.0, 0.0, 0.0, 0.0, 0.0, 0.0, 1.6953714656600592E9, 0.0, 2023-09-22 10:31:05.660
104.0, 463.17284860287293, 187500.0, -187500.02235174447, -187500.02235174447, 187500.0, -187500.02235174447, -187500.02235174447, 187500.0, 0.04, -0.008, 1.002, 192.0, 0.0, 0.0, 0.0, 0.0, 0.0, 0.0, 0.0, 0.0, 0.0, 1.6953714656600971E9, 0.0, 2023-09-22 10:31:05.660
105.0, 1538.3811638809639, 187500.0, -187500.02235174447, -187500.02235174447, 187500.0, -187500.02235174447, -187500.02235174447, 187500.0, 0.04, -0.008, 1.002, 192.0, 0.0, 0.0, 0.0, 0.0, 0.0, 0.0, 0.0, 0.0, 0.0, 1.695371465660139E9, 0.0, 2023-09-22 10:31:05.660
106.0, 4551.061040289526, 187500.0, -187500.02235174447, -187500.02235174447, 187500.0, -187500.02235174447, -187500.02235174447, 187500.0, 0.04, -0.008, 1.002, 192.0, 0.0, 0.0, 0.0, 0.0, 0.0, 0.0, 0.0, 0.0, 0.0, 1.6953714656602988E9, 0.0, 2023-09-22 10:31:05.660
107.0, 7103.116166963121, 187500.0, -187500.02235174447, -187500.02235174447, 187500.0, -187500.02235174447, -187500.02235174447, 187500.0, 0.036000000000000004, -0.014, 1.008, 192.0, 1.0, 32.0, 255.0, 144.0, 31.0, 128.0, 0.0, 0.0, 0.0, 1.6953714656603467E9, 0.0, 2023-09-22 10:31:05.660
108.0, 9033.077541956609, 187500.0, -187500.02235174447, -187500.02235174447, 187500.0, -187500.02235174447, -187500.02235174447, 187500.0, 0.036000000000000004, -0.014, 1.008, 192.0, 0.0, 0.0, 0.0, 0.0, 0.0, 0.0, 0.0, 0.0, 0.0, 1.6953714656604085E9, 0.0, 2023-09-22 10:31:05.660
109.0, 7971.928473940907, 187500.0, -187500.02235174447, -187500.02235174447, 187500.0, -187500.02235174447, -187500.02235174447, 187500.0, 0.036000000000000004, -0.014, 1.008, 192.0, 0.0, 0.0, 0.0, 0.0, 0.0, 0.0, 0.0, 0.0, 0.0, 1.6953714656604483E9, 0.0, 2023-09-22 10:31:05.660
110.0, 4999.280571851798, 187500.0, -187500.02235174447, -187500.02235174447, 187500.0, -187500.02235174447, -187500.02235174447, 187500.0, 0.036000000000000004, -0.014, 1.008, 192.0, 0.0, 0.0, 0.0, 0.0, 0.0, 0.0, 0.0, 0.0, 0.0, 1.6953714656604884E9, 0.0, 2023-09-22 10:31:05.660
111.0, 2421.5879942879674, 187500.0, -187500.02235174447, -187500.02235174447, 187500.0, -187500.02235174447, -187500.02235174447, 187500.0, 0.036000000000000004, -0.014, 1.008, 192.0, 0.0, 0.0, 0.0, 0.0, 0.0, 0.0, 0.0, 0.0, 0.0, 1.6953714656605327E9, 0.0, 2023-09-22 10:31:05.660
112.0, 471.040662651141, 187500.0, -187500.02235174447, -187500.02235174447, 187500.0, -187500.02235174447, -187500.02235174447, 187500.0, 0.036000000000000004, -0.014, 1.008, 192.0, 0.0, 0.0, 0.0, 0.0, 0.0, 0.0, 0.0, 0.0, 0.0, 1.6953714656605752E9, 0.0, 2023-09-22 10:31:05.660
113.0, 1535.0284022126677, 187500.0, -187500.02235174447, -187500.02235174447, 187500.0, -187500.02235174447, -187500.02235174447, 187500.0, 0.036000000000000004, -0.014, 1.008, 192.0, 0.0, 0.0, 0.0, 0.0, 0.0, 0.0, 0.0, 0.0, 0.0, 1.6953714656606247E9, 0.0, 2023-09-22 10:31:05.660
114.0, 4566.99783408616, 187500.0, -187500.02235174447, -187500.02235174447, 187500.0, -187500.02235174447, -187500.02235174447, 187500.0, 0.036000000000000004, -0.014, 1.008, 192.0, 0.0, 0.0, 0.0, 0.0, 0.0, 0.0, 0.0, 0.0, 0.0, 1.6953714656606655E9, 0.0, 2023-09-22 10:31:05.660
115.0, 7141.762333126347, 187500.0, -187500.02235174447, -187500.02235174447, 187500.0, -187500.02235174447, -187500.02235174447, 187500.0, 0.036000000000000004, -0.014, 1.008, 192.0, 0.0, 0.0, 0.0, 0.0, 0.0, 0.0, 0.0, 0.0, 0.0, 1.6953714656607044E9, 0.0, 2023-09-22 10:31:05.660
116.0, 9042.26410892774, 187500.0, -187500.02235174447, -187500.02235174447, 187500.0, -187500.02235174447, -187500.02235174447, 187500.0, 0.036000000000000004, -0.014, 1.008, 192.0, 0.0, 0.0, 0.0, 0.0, 0.0, 0.0, 0.0, 0.0, 0.0, 1.6953714656607485E9, 0.0, 2023-09-22 10:31:05.660
117.0, 7960.707898224342, 187500.0, -187500.02235174447, -187500.02235174447, 187500.0, -187500.02235174447, -187500.02235174447, 187500.0, 0.04, -0.01, 1.008, 192.0, 1.0, 64.0, 255.0, 176.0, 31.0, 128.0, 0.0, 0.0, 0.0, 1.6953714656607888E9, 0.0, 2023-09-22 10:31:05.660
118.0, 4947.268062504299, 187500.0, -187500.02235174447, -187500.02235174447, 187500.0, -187500.02235174447, -187500.02235174447, 187500.0, 0.04, -0.01, 1.008, 192.0, 0.0, 0.0, 0.0, 0.0, 0.0, 0.0, 0.0, 0.0, 0.0, 1.6953714656608372E9, 0.0, 2023-09-22 10:31:05.660
119.0, 2373.7105576646995, 187500.0, -187500.02235174447, -187500.02235174447, 187500.0, -187500.02235174447, -187500.02235174447, 187500.0, 0.04, -0.01, 1.008, 192.0, 0.0, 0.0, 0.0, 0.0, 0.0, 0.0, 0.0, 0.0, 0.0, 1.6953714656608808E9, 0.0, 2023-09-22 10:31:05.660
120.0, 458.009595633697, 187500.0, -187500.02235174447, -187500.02235174447, 187500.0, -187500.02235174447, -187500.02235174447, 187500.0, 0.04, -0.01, 1.008, 192.0, 0.0, 0.0, 0.0, 0.0, 0.0, 0.0, 0.0, 0.0, 0.0, 1.6953714656609244E9, 0.0, 2023-09-22 10:31:05.660
121.0, 1507.6475152549167, 187500.0, -187500.02235174447, -187500.02235174447, 187500.0, -187500.02235174447, -187500.02235174447, 187500.0, 0.04, -0.01, 1.008, 192.0, 0.0, 0.0, 0.0, 0.0, 0.0, 0.0, 0.0, 0.0, 0.0, 1.6953714661338773E9, 0.0, 2023-09-22 10:31:06.133
122.0, 4539.415781428312, 187500.0, -187500.02235174447, -187500.02235174447, 187500.0, -187500.02235174447, -187500.02235174447, 187500.0, 0.04, -0.01, 1.008, 192.0, 0.0, 0.0, 0.0, 0.0, 0.0, 0.0, 0.0, 0.0, 0.0, 1.6953714661340423E9, 0.0, 2023-09-22 10:31:06.134
123.0, 7138.118998780132, 187500.0, -187500.02235174447, -187500.02235174447, 187500.0, -187500.02235174447, -187500.02235174447, 187500.0, 0.04, -0.01, 1.008, 192.0, 0.0, 0.0, 0.0, 0.0, 0.0, 0.0, 0.0, 0.0, 0.0, 1.695371466134149E9, 0.0, 2023-09-22 10:31:06.134
124.0, 9025.567355819627, 187500.0, -187500.02235174447, -187500.02235174447, 187500.0, -187500.02235174447, -187500.02235174447, 187500.0, 0.04, -0.01, 1.008, 192.0, 0.0, 0.0, 0.0, 0.0, 0.0, 0.0, 0.0, 0.0, 0.0, 1.6953714661342328E9, 0.0, 2023-09-22 10:31:06.134
125.0, 7941.597156715055, 187500.0, -187500.02235174447, -187500.02235174447, 187500.0, -187500.02235174447, -187500.02235174447, 187500.0, 0.04, -0.01, 1.008, 192.0, 0.0, 0.0, 0.0, 0.0, 0.0, 0.0, 0.0, 0.0, 0.0, 1.6953714661343272E9, 0.0, 2023-09-22 10:31:06.134
126.0, 4915.5732888666735, 187500.0, -187500.02235174447, -187500.02235174447, 187500.0, -187500.02235174447, -187500.02235174447, 187500.0, 0.04, -0.01, 1.008, 192.0, 0.0, 0.0, 0.0, 0.0, 0.0, 0.0, 0.0, 0.0, 0.0, 1.695371466134394E9, 0.0, 2023-09-22 10:31:06.134
127.0, 2336.472551402158, 187500.0, -187500.02235174447, -187500.02235174447, 187500.0, -187500.02235174447, -187500.02235174447, 187500.0, 0.04, -0.008, 1.008, 192.0, 1.0, 64.0, 255.0, 192.0, 31.0, 128.0, 0.0, 0.0, 0.0, 1.6953714661344397E9, 0.0, 2023-09-22 10:31:06.134
128.0, 416.7035718802896, 187500.0, -187500.02235174447, -187500.02235174447, 187500.0, -187500.02235174447, -187500.02235174447, 187500.0, 0.04, -0.008, 1.008, 192.0, 0.0, 0.0, 0.0, 0.0, 0.0, 0.0, 0.0, 0.0, 0.0, 1.6953714661344984E9, 0.0, 2023-09-22 10:31:06.134
129.0, 1500.3384948180312, 187500.0, -187500.02235174447, -187500.02235174447, 187500.0, -187500.02235174447, -187500.02235174447, 187500.0, 0.04, -0.008, 1.008, 192.0, 0.0, 0.0, 0.0, 0.0, 0.0, 0.0, 0.0, 0.0, 0.0, 1.6953714661345675E9, 0.0, 2023-09-22 10:31:06.134
130.0, 4543.059115774527, 187500.0, -187500.02235174447, -187500.02235174447, 187500.0, -187500.02235174447, -187500.02235174447, 187500.0, 0.04, -0.008, 1.008, 192.0, 0.0, 0.0, 0.0, 0.0, 0.0, 0.0, 0.0, 0.0, 0.0, 1.6953714661346245E9, 0.0, 2023-09-22 10:31:06.134
131.0, 7106.69244607597, 187500.0, -187500.02235174447, -187500.02235174447, 187500.0, -187500.02235174447, -187500.02235174447, 187500.0, 0.04, -0.008, 1.008, 192.0, 0.0, 0.0, 0.0, 0.0, 0.0, 0.0, 0.0, 0.0, 0.0, 1.6953714661346655E9, 0.0, 2023-09-22 10:31:06.134
132.0, 9039.134864703998, 187500.0, -187500.02235174447, -187500.02235174447, 187500.0, -187500.02235174447, -187500.02235174447, 187500.0, 0.04, -0.008, 1.008, 192.0, 0.0, 0.0, 0.0, 0.0, 0.0, 0.0, 0.0, 0.0, 0.0, 1.6953714661347103E9, 0.0, 2023-09-22 10:31:06.134
133.0, 7916.85377560303, 187500.0, -187500.02235174447, -187500.02235174447, 187500.0, -187500.02235174447, -187500.02235174447, 187500.0, 0.04, -0.008, 1.008, 192.0, 0.0, 0.0, 0.0, 0.0, 0.0, 0.0, 0.0, 0.0, 0.0, 1.695371466134756E9, 0.0, 2023-09-22 10:31:06.134
134.0, 4854.798895692694, 187500.0, -187500.02235174447, -187500.02235174447, 187500.0, -187500.02235174447, -187500.02235174447, 187500.0, 0.04, -0.008, 1.008, 192.0, 0.0, 0.0, 0.0, 0.0, 0.0, 0.0, 0.0, 0.0, 0.0, 1.695371466134797E9, 0.0, 2023-09-22 10:31:06.134
135.0, 2314.1655104357615, 187500.0, -187500.02235174447, -187500.02235174447, 187500.0, -187500.02235174447, -187500.02235174447, 187500.0, 0.04, -0.008, 1.008, 192.0, 0.0, 0.0, 0.0, 0.0, 0.0, 0.0, 0.0, 0.0, 0.0, 1.6953714661348393E9, 0.0, 2023-09-22 10:31:06.134
136.0, 431.1204470539626, 187500.0, -187500.02235174447, -187500.02235174447, 187500.0, -187500.02235174447, -187500.02235174447, 187500.0, 0.04, -0.008, 1.008, 192.0, 0.0, 0.0, 0.0, 0.0, 0.0, 0.0, 0.0, 0.0, 0.0, 1.6953714661350574E9, 0.0, 2023-09-22 10:31:06.135
137.0, 1438.4688661657412, 187500.0, -187500.02235174447, -187500.02235174447, 187500.0, -187500.02235174447, -187500.02235174447, 187500.0, 0.042, -0.01, 1.008, 192.0, 1.0, 80.0, 255.0, 176.0, 31.0, 128.0, 0.0, 0.0, 0.0, 1.6953714661351235E9, 0.0, 2023-09-22 10:31:06.135
138.0, 4457.78721067753, 187500.0, -187500.02235174447, -187500.02235174447, 187500.0, -187500.02235174447, -187500.02235174447, 187500.0, 0.042, -0.01, 1.008, 192.0, 0.0, 0.0, 0.0, 0.0, 0.0, 0.0, 0.0, 0.0, 0.0, 1.6953714661351848E9, 0.0, 2023-09-22 10:31:06.135
139.0, 7025.309744514197, 187500.0, -187500.02235174447, -187500.02235174447, 187500.0, -187500.02235174447, -187500.02235174447, 187500.0, 0.042, -0.01, 1.008, 192.0, 0.0, 0.0, 0.0, 0.0, 0.0, 0.0, 0.0, 0.0, 0.0, 1.6953714661352463E9, 0.0, 2023-09-22 10:31:06.135
140.0, 8955.24876776323, 187500.0, -187500.02235174447, -187500.02235174447, 187500.0, -187500.02235174447, -187500.02235174447, 187500.0, 0.042, -0.01, 1.008, 192.0, 0.0, 0.0, 0.0, 0.0, 0.0, 0.0, 0.0, 0.0, 0.0, 1.6953714661353E9, 0.0, 2023-09-22 10:31:06.135
141.0, 7932.410589743923, 187500.0, -187500.02235174447, -187500.02235174447, 187500.0, -187500.02235174447, -187500.02235174447, 187500.0, 0.042, -0.01, 1.008, 192.0, 0.0, 0.0, 0.0, 0.0, 0.0, 0.0, 0.0, 0.0, 0.0, 1.6953714661353514E9, 0.0, 2023-09-22 10:31:06.135
142.0, 4938.305012977721, 187500.0, -187500.02235174447, -187500.02235174447, 187500.0, -187500.02235174447, -187500.02235174447, 187500.0, 0.042, -0.01, 1.008, 192.0, 0.0, 0.0, 0.0, 0.0, 0.0, 0.0, 0.0, 0.0, 0.0, 1.695371466135398E9, 0.0, 2023-09-22 10:31:06.135
143.0, 2364.076955804462, 187500.0, -187500.02235174447, -187500.02235174447, 187500.0, -187500.02235174447, -187500.02235174447, 187500.0, 0.042, -0.01, 1.008, 192.0, 0.0, 0.0, 0.0, 0.0, 0.0, 0.0, 0.0, 0.0, 0.0, 1.695371466135443E9, 0.0, 2023-09-22 10:31:06.135
144.0, 465.05039513711876, 187500.0, -187500.02235174447, -187500.02235174447, 187500.0, -187500.02235174447, -187500.02235174447, 187500.0, 0.042, -0.01, 1.008, 192.0, 0.0, 0.0, 0.0, 0.0, 0.0, 0.0, 0.0, 0.0, 0.0, 1.695371466135497E9, 0.0, 2023-09-22 10:31:06.135
145.0, 1514.509500802696, 187500.0, -187500.02235174447, -187500.02235174447, 187500.0, -187500.02235174447, -187500.02235174447, 187500.0, 0.042, -0.01, 1.008, 192.0, 0.0, 0.0, 0.0, 0.0, 0.0, 0.0, 0.0, 0.0, 0.0, 1.6953714661355436E9, 0.0, 2023-09-22 10:31:06.135
146.0, 4513.733627049163, 187500.0, -187500.02235174447, -187500.02235174447, 187500.0, -187500.02235174447, -187500.02235174447, 187500.0, 0.042, -0.01, 1.008, 192.0, 0.0, 0.0, 0.0, 0.0, 0.0, 0.0, 0.0, 0.0, 0.0, 1.6953714661355937E9, 0.0, 2023-09-22 10:31:06.135
147.0, 7056.870407685091, 187500.0, -187500.02235174447, -187500.02235174447, 187500.0, -187500.02235174447, -187500.02235174447, 187500.0, 0.038, -0.01, 1.008, 192.0, 1.0, 48.0, 255.0, 176.0, 31.0, 128.0, 0.0, 0.0, 0.0, 1.695371466135641E9, 0.0, 2023-09-22 10:31:06.135
148.0, 9000.064015396121, 187500.0, -187500.02235174447, -187500.02235174447, 187500.0, -187500.02235174447, -187500.02235174447, 187500.0, 0.038, -0.01, 1.008, 192.0, 0.0, 0.0, 0.0, 0.0, 0.0, 0.0, 0.0, 0.0, 0.0, 1.6953714661356864E9, 0.0, 2023-09-22 10:31:06.135
149.0, 7915.333856980069, 187500.0, -187500.02235174447, -187500.02235174447, 187500.0, -187500.02235174447, -187500.02235174447, 187500.0, 0.038, -0.01, 1.008, 192.0, 0.0, 0.0, 0.0, 0.0, 0.0, 0.0, 0.0, 0.0, 0.0, 1.6953714661357317E9, 0.0, 2023-09-22 10:31:06.135
150.0, 4893.892096745026, 187500.0, -187500.02235174447, -187500.02235174447, 187500.0, -187500.02235174447, -187500.02235174447, 187500.0, 0.038, -0.01, 1.008, 192.0, 0.0, 0.0, 0.0, 0.0, 0.0, 0.0, 0.0, 0.0, 0.0, 1.6953714661357768E9, 0.0, 2023-09-22 10:31:06.135
151.0, 2347.89429281882, 187500.0, -187500.02235174447, -187500.02235174447, 187500.0, -187500.02235174447, -187500.02235174447, 187500.0, 0.038, -0.01, 1.008, 192.0, 0.0, 0.0, 0.0, 0.0, 0.0, 0.0, 0.0, 0.0, 0.0, 1.6953714661359332E9, 0.0, 2023-09-22 10:31:06.135
152.0, 421.7997696160996, 187500.0, -187500.02235174447, -187500.02235174447, 187500.0, -187500.02235174447, -187500.02235174447, 187500.0, 0.038, -0.01, 1.008, 192.0, 0.0, 0.0, 0.0, 0.0, 0.0, 0.0, 0.0, 0.0, 0.0, 1.695371466135981E9, 0.0, 2023-09-22 10:31:06.135
153.0, 1484.2228870657548, 187500.0, -187500.02235174447, -187500.02235174447, 187500.0, -187500.02235174447, -187500.02235174447, 187500.0, 0.038, -0.01, 1.008, 192.0, 0.0, 0.0, 0.0, 0.0, 0.0, 0.0, 0.0, 0.0, 0.0, 1.6953714661360273E9, 0.0, 2023-09-22 10:31:06.136
154.0, 4485.928056946762, 187500.0, -187500.02235174447, -187500.02235174447, 187500.0, -187500.02235174447, -187500.02235174447, 187500.0, 0.038, -0.01, 1.008, 192.0, 0.0, 0.0, 0.0, 0.0, 0.0, 0.0, 0.0, 0.0, 0.0, 1.695371466136076E9, 0.0, 2023-09-22 10:31:06.136
155.0, 7081.993768452856, 187500.0, -187500.02235174447, -187500.02235174447, 187500.0, -187500.02235174447, -187500.02235174447, 187500.0, 0.038, -0.01, 1.008, 192.0, 0.0, 0.0, 0.0, 0.0, 0.0, 0.0, 0.0, 0.0, 0.0, 1.6953714661361196E9, 0.0, 2023-09-22 10:31:06.136
156.0, 9012.916268457922, 187500.0, -187500.02235174447, -187500.02235174447, 187500.0, -187500.02235174447, -187500.02235174447, 187500.0, 0.038, -0.01, 1.008, 192.0, 0.0, 0.0, 0.0, 0.0, 0.0, 0.0, 0.0, 0.0, 0.0, 1.6953714661361666E9, 0.0, 2023-09-22 10:31:06.136
157.0, 7897.854792816019, 187500.0, -187500.02235174447, -187500.02235174447, 187500.0, -187500.02235174447, -187500.02235174447, 187500.0, 0.034, -0.01, 1.006, 192.0, 1.0, 16.0, 255.0, 176.0, 31.0, 112.0, 0.0, 0.0, 0.0, 1.695371466136212E9, 0.0, 2023-09-22 10:31:06.136
158.0, 4874.781355235738, 187500.0, -187500.02235174447, -187500.02235174447, 187500.0, -187500.02235174447, -187500.02235174447, 187500.0, 0.034, -0.01, 1.006, 192.0, 0.0, 0.0, 0.0, 0.0, 0.0, 0.0, 0.0, 0.0, 0.0, 1.6953714661362624E9, 0.0, 2023-09-22 10:31:06.136
159.0, 2306.9458969766974, 187500.0, -187500.02235174447, -187500.02235174447, 187500.0, -187500.02235174447, -187500.02235174447, 187500.0, 0.034, -0.01, 1.006, 192.0, 0.0, 0.0, 0.0, 0.0, 0.0, 0.0, 0.0, 0.0, 0.0, 1.6953714661363032E9, 0.0, 2023-09-22 10:31:06.136
160.0, 418.6481736479013, 187500.0, -187500.02235174447, -187500.02235174447, 187500.0, -187500.02235174447, -187500.02235174447, 187500.0, 0.034, -0.01, 1.006, 192.0, 0.0, 0.0, 0.0, 0.0, 0.0, 0.0, 0.0, 0.0, 0.0, 1.6953714661363473E9, 0.0, 2023-09-22 10:31:06.136
161.0, 1507.2675355991764, 187500.0, -187500.02235174447, -187500.02235174447, 187500.0, -187500.02235174447, -187500.02235174447, 187500.0, 0.034, -0.01, 1.006, 192.0, 0.0, 0.0, 0.0, 0.0, 0.0, 0.0, 0.0, 0.0, 0.0, 1.69537146613639E9, 0.0, 2023-09-22 10:31:06.136
162.0, 4514.5382898495545, 187500.0, -187500.02235174447, -187500.02235174447, 187500.0, -187500.02235174447, -187500.02235174447, 187500.0, 0.034, -0.01, 1.006, 192.0, 0.0, 0.0, 0.0, 0.0, 0.0, 0.0, 0.0, 0.0, 0.0, 1.6953714661364348E9, 0.0, 2023-09-22 10:31:06.136
163.0, 7050.880140171068, 187500.0, -187500.02235174447, -187500.02235174447, 187500.0, -187500.02235174447, -187500.02235174447, 187500.0, 0.034, -0.01, 1.006, 192.0, 0.0, 0.0, 0.0, 0.0, 0.0, 0.0, 0.0, 0.0, 0.0, 1.6953714661364791E9, 0.0, 2023-09-22 10:31:06.136
164.0, 8944.832854847056, 187500.0, -187500.02235174447, -187500.02235174447, 187500.0, -187500.02235174447, -187500.02235174447, 187500.0, 0.034, -0.01, 1.006, 192.0, 0.0, 0.0, 0.0, 0.0, 0.0, 0.0, 0.0, 0.0, 0.0, 1.695371466136522E9, 0.0, 2023-09-22 10:31:06.136
165.0, 7880.934522263351, 187500.0, -187500.02235174447, -187500.02235174447, 187500.0, -187500.02235174447, -187500.02235174447, 187500.0, 0.034, -0.01, 1.006, 192.0, 0.0, 0.0, 0.0, 0.0, 0.0, 0.0, 0.0, 0.0, 0.0, 1.6953714661365647E9, 0.0, 2023-09-22 10:31:06.136
166.0, 4866.332395831632, 187500.0, -187500.02235174447, -187500.02235174447, 187500.0, -187500.02235174447, -187500.02235174447, 187500.0, 0.034, -0.01, 1.006, 192.0, 0.0, 0.0, 0.0, 0.0, 0.0, 0.0, 0.0, 0.0, 0.0, 1.6953714661367052E9, 0.0, 2023-09-22 10:31:06.136
167.0, 2299.1898416507056, 187500.0, -187500.02235174447, -187500.02235174447, 187500.0, -187500.02235174447, -187500.02235174447, 187500.0, 0.032, -0.012, 1.01, 192.0, 1.0, 0.0, 255.0, 160.0, 31.0, 144.0, 0.0, 0.0, 0.0, 1.6953714661367462E9, 0.0, 2023-09-22 10:31:06.136
168.0, 383.0194929861418, 187500.0, -187500.02235174447, -187500.02235174447, 187500.0, -187500.02235174447, -187500.02235174447, 187500.0, 0.032, -0.012, 1.01, 192.0, 0.0, 0.0, 0.0, 0.0, 0.0, 0.0, 0.0, 0.0, 0.0, 1.6953714661367888E9, 0.0, 2023-09-22 10:31:06.136
169.0, 1430.9363282843028, 187500.0, -187500.02235174447, -187500.02235174447, 187500.0, -187500.02235174447, -187500.02235174447, 187500.0, 0.032, -0.012, 1.01, 192.0, 0.0, 0.0, 0.0, 0.0, 0.0, 0.0, 0.0, 0.0, 0.0, 1.6953714661368308E9, 0.0, 2023-09-22 10:31:06.136
170.0, 4469.365414305379, 187500.0, -187500.02235174447, -187500.02235174447, 187500.0, -187500.02235174447, -187500.02235174447, 187500.0, 0.032, -0.012, 1.01, 192.0, 0.0, 0.0, 0.0, 0.0, 0.0, 0.0, 0.0, 0.0, 0.0, 1.695371466136874E9, 0.0, 2023-09-22 10:31:06.136
171.0, 7062.793619965747, 187500.0, -187500.02235174447, -187500.02235174447, 187500.0, -187500.02235174447, -187500.02235174447, 187500.0, 0.032, -0.012, 1.01, 192.0, 0.0, 0.0, 0.0, 0.0, 0.0, 0.0, 0.0, 0.0, 0.0, 1.6953714661369135E9, 0.0, 2023-09-22 10:31:06.136
172.0, 8933.411113430395, 187500.0, -187500.02235174447, -187500.02235174447, 187500.0, -187500.02235174447, -187500.02235174447, 187500.0, 0.032, -0.012, 1.01, 192.0, 0.0, 0.0, 0.0, 0.0, 0.0, 0.0, 0.0, 0.0, 0.0, 1.6953714661369526E9, 0.0, 2023-09-22 10:31:06.136
173.0, 7859.230978397248, 187500.0, -187500.02235174447, -187500.02235174447, 187500.0, -187500.02235174447, -187500.02235174447, 187500.0, 0.032, -0.012, 1.01, 192.0, 0.0, 0.0, 0.0, 0.0, 0.0, 0.0, 0.0, 0.0, 0.0, 1.695371466136994E9, 0.0, 2023-09-22 10:31:06.136
174.0, 4880.436346582931, 187500.0, -187500.02235174447, -187500.02235174447, 187500.0, -187500.02235174447, -187500.02235174447, 187500.0, 0.032, -0.012, 1.01, 192.0, 0.0, 0.0, 0.0, 0.0, 0.0, 0.0, 0.0, 0.0, 0.0, 1.6953714661370363E9, 0.0, 2023-09-22 10:31:06.137
175.0, 2328.314164675971, 187500.0, -187500.02235174447, -187500.02235174447, 187500.0, -187500.02235174447, -187500.02235174447, 187500.0, 0.032, -0.012, 1.01, 192.0, 0.0, 0.0, 0.0, 0.0, 0.0, 0.0, 0.0, 0.0, 0.0, 1.695371466137081E9, 0.0, 2023-09-22 10:31:06.137
176.0, 405.55005139709135, 187500.0, -187500.02235174447, -187500.02235174447, 187500.0, -187500.02235174447, -187500.02235174447, 187500.0, 0.032, -0.012, 1.01, 192.0, 0.0, 0.0, 0.0, 0.0, 0.0, 0.0, 0.0, 0.0, 0.0, 1.695371466137118E9, 0.0, 2023-09-22 10:31:06.137
177.0, 1447.6777848813279, 187500.0, -187500.02235174447, -187500.02235174447, 187500.0, -187500.02235174447, -187500.02235174447, 187500.0, 0.036000000000000004, -0.008, 1.008, 192.0, 1.0, 32.0, 255.0, 192.0, 31.0, 128.0, 0.0, 0.0, 0.0, 1.6953714661371603E9, 0.0, 2023-09-22 10:31:06.137
178.0, 4473.500487029611, 187500.0, -187500.02235174447, -187500.02235174447, 187500.0, -187500.02235174447, -187500.02235174447, 187500.0, 0.036000000000000004, -0.008, 1.008, 192.0, 0.0, 0.0, 0.0, 0.0, 0.0, 0.0, 0.0, 0.0, 0.0, 1.6953714661372058E9, 0.0, 2023-09-22 10:31:06.137
179.0, 7049.4943320148395, 187500.0, -187500.02235174447, -187500.02235174447, 187500.0, -187500.02235174447, -187500.02235174447, 187500.0, 0.036000000000000004, -0.008, 1.008, 192.0, 0.0, 0.0, 0.0, 0.0, 0.0, 0.0, 0.0, 0.0, 0.0, 1.695371466137247E9, 0.0, 2023-09-22 10:31:06.137
180.0, 8984.037814621666, 187500.0, -187500.02235174447, -187500.02235174447, 187500.0, -187500.02235174447, -187500.02235174447, 187500.0, 0.036000000000000004, -0.008, 1.008, 192.0, 0.0, 0.0, 0.0, 0.0, 0.0, 0.0, 0.0, 0.0, 0.0, 1.6953714661372895E9, 0.0, 2023-09-22 10:31:06.137
181.0, 7890.679882845865, 187500.0, -187500.02235174447, -187500.02235174447, 187500.0, -187500.02235174447, -187500.02235174447, 187500.0, 0.036000000000000004, -0.008, 1.008, 192.0, 0.0, 0.0, 0.0, 0.0, 0.0, 0.0, 0.0, 0.0, 0.0, 1.6953714661373844E9, 0.0, 2023-09-22 10:31:06.137
182.0, 4841.186683319412, 187500.0, -187500.02235174447, -187500.02235174447, 187500.0, -187500.02235174447, -187500.02235174447, 187500.0, 0.036000000000000004, -0.008, 1.008, 192.0, 0.0, 0.0, 0.0, 0.0, 0.0, 0.0, 0.0, 0.0, 0.0, 1.695371466137428E9, 0.0, 2023-09-22 10:31:06.137
183.0, 2285.018835666041, 187500.0, -187500.02235174447, -187500.02235174447, 187500.0, -187500.02235174447, -187500.02235174447, 187500.0, 0.036000000000000004, -0.008, 1.008, 192.0, 0.0, 0.0, 0.0, 0.0, 0.0, 0.0, 0.0, 0.0, 0.0, 1.6953714661374714E9, 0.0, 2023-09-22 10:31:06.137
184.0, 392.07194949054116, 187500.0, -187500.02235174447, -187500.02235174447, 187500.0, -187500.02235174447, -187500.02235174447, 187500.0, 0.036000000000000004, -0.008, 1.008, 192.0, 0.0, 0.0, 0.0, 0.0, 0.0, 0.0, 0.0, 0.0, 0.0, 1.6953714661375153E9, 0.0, 2023-09-22 10:31:06.137
185.0, 1455.5679506740512, 187500.0, -187500.02235174447, -187500.02235174447, 187500.0, -187500.02235174447, -187500.02235174447, 187500.0, 0.036000000000000004, -0.008, 1.008, 192.0, 0.0, 0.0, 0.0, 0.0, 0.0, 0.0, 0.0, 0.0, 0.0, 1.6953714661375582E9, 0.0, 2023-09-22 10:31:06.137
186.0, 4486.866830213885, 187500.0, -187500.02235174447, -187500.02235174447, 187500.0, -187500.02235174447, -187500.02235174447, 187500.0, 0.036000000000000004, -0.008, 1.008, 192.0, 0.0, 0.0, 0.0, 0.0, 0.0, 0.0, 0.0, 0.0, 0.0, 1.695371466137601E9, 0.0, 2023-09-22 10:31:06.137
187.0, 7033.311669029197, 187500.0, -187500.02235174447, -187500.02235174447, 187500.0, -187500.02235174447, -187500.02235174447, 187500.0, 0.036000000000000004, -0.008, 1.002, 192.0, 1.0, 32.0, 255.0, 192.0, 31.0, 80.0, 0.0, 0.0, 0.0, 1.6953714661376436E9, 0.0, 2023-09-22 10:31:06.137
188.0, 8936.473302420773, 187500.0, -187500.02235174447, -187500.02235174447, 187500.0, -187500.02235174447, -187500.02235174447, 187500.0, 0.036000000000000004, -0.008, 1.002, 192.0, 0.0, 0.0, 0.0, 0.0, 0.0, 0.0, 0.0, 0.0, 0.0, 1.6953714661376886E9, 0.0, 2023-09-22 10:31:06.137
189.0, 7845.618766023966, 187500.0, -187500.02235174447, -187500.02235174447, 187500.0, -187500.02235174447, -187500.02235174447, 187500.0, 0.036000000000000004, -0.008, 1.002, 192.0, 0.0, 0.0, 0.0, 0.0, 0.0, 0.0, 0.0, 0.0, 0.0, 1.6953714661377316E9, 0.0, 2023-09-22 10:31:06.137
190.0, 4841.790180419705, 187500.0, -187500.02235174447, -187500.02235174447, 187500.0, -187500.02235174447, -187500.02235174447, 187500.0, 0.036000000000000004, -0.008, 1.002, 192.0, 0.0, 0.0, 0.0, 0.0, 0.0, 0.0, 0.0, 0.0, 0.0, 1.695371466137771E9, 0.0, 2023-09-22 10:31:06.137
191.0, 2286.695216500189, 187500.0, -187500.02235174447, -187500.02235174447, 187500.0, -187500.02235174447, -187500.02235174447, 187500.0, 0.036000000000000004, -0.008, 1.002, 192.0, 0.0, 0.0, 0.0, 0.0, 0.0, 0.0, 0.0, 0.0, 0.0, 1.695371466137814E9, 0.0, 2023-09-22 10:31:06.137
192.0, 345.5803210235025, 187500.0, -187500.02235174447, -187500.02235174447, 187500.0, -187500.02235174447, -187500.02235174447, 187500.0, 0.036000000000000004, -0.008, 1.002, 192.0, 0.0, 0.0, 0.0, 0.0, 0.0, 0.0, 0.0, 0.0, 0.0, 1.6953714661378577E9, 0.0, 2023-09-22 10:31:06.137
193.0, 1411.1997379302668, 187500.0, -187500.02235174447, -187500.02235174447, 187500.0, -187500.02235174447, -187500.02235174447, 187500.0, 0.036000000000000004, -0.008, 1.002, 192.0, 0.0, 0.0, 0.0, 0.0, 0.0, 0.0, 0.0, 0.0, 0.0, 1.6953714661379008E9, 0.0, 2023-09-22 10:31:06.137
194.0, 4455.820257165463, 187500.0, -187500.02235174447, -187500.02235174447, 187500.0, -187500.02235174447, -187500.02235174447, 187500.0, 0.036000000000000004, -0.008, 1.002, 192.0, 0.0, 0.0, 0.0, 0.0, 0.0, 0.0, 0.0, 0.0, 0.0, 1.6953714661379404E9, 0.0, 2023-09-22 10:31:06.137
195.0, 7013.686837397438, 187500.0, -187500.02235174447, -187500.02235174447, 187500.0, -187500.02235174447, -187500.02235174447, 187500.0, 0.036000000000000004, -0.008, 1.002, 192.0, 0.0, 0.0, 0.0, 0.0, 0.0, 0.0, 0.0, 0.0, 0.0, 1.6953714661379752E9, 0.0, 2023-09-22 10:31:06.137
196.0, 8919.083645234543, 187500.0, -187500.02235174447, -187500.02235174447, 187500.0, -187500.02235174447, -187500.02235174447, 187500.0, 0.032, -0.004, 1.0, 192.0, 1.0, 0.0, 255.0, 224.0, 31.0, 64.0, 0.0, 0.0, 0.0, 1.6953714661380675E9, 0.0, 2023-09-22 10:31:06.138
197.0, 7828.497329771201, 187500.0, -187500.02235174447, -187500.02235174447, 187500.0, -187500.02235174447, -187500.02235174447, 187500.0, 0.032, -0.004, 1.0, 192.0, 0.0, 0.0, 0.0, 0.0, 0.0, 0.0, 0.0, 0.0, 0.0, 1.695371466138111E9, 0.0, 2023-09-22 10:31:06.138
198.0, 4838.660936195963, 187500.0, -187500.02235174447, -187500.02235174447, 187500.0, -187500.02235174447, -187500.02235174447, 187500.0, 0.032, -0.004, 1.0, 192.0, 0.0, 0.0, 0.0, 0.0, 0.0, 0.0, 0.0, 0.0, 0.0, 1.695371466138152E9, 0.0, 2023-09-22 10:31:06.138
199.0, 2276.189896606195, 187500.0, -187500.02235174447, -187500.02235174447, 187500.0, -187500.02235174447, -187500.02235174447, 187500.0, 0.032, -0.004, 1.0, 192.0, 0.0, 0.0, 0.0, 0.0, 0.0, 0.0, 0.0, 0.0, 0.0, 1.695371466138193E9, 0.0, 2023-09-22 10:31:06.138
200.0, 364.0205101991308, 187500.0, -187500.02235174447, -187500.02235174447, 187500.0, -187500.02235174447, -187500.02235174447, 187500.0, 0.032, -0.004, 1.0, 192.0, 0.0, 0.0, 0.0, 0.0, 0.0, 0.0, 0.0, 0.0, 0.0, 1.6953714661382337E9, 0.0, 2023-09-22 10:31:06.138
201.0, 1396.7158075232278, 187500.0, -187500.02235174447, -187500.02235174447, 187500.0, -187500.02235174447, -187500.02235174447, 187500.0, 0.032, -0.004, 1.0, 192.0, 0.0, 0.0, 0.0, 0.0, 0.0, 0.0, 0.0, 0.0, 0.0, 1.695371466138275E9, 0.0, 2023-09-22 10:31:06.138
202.0, 4412.591983388899, 187500.0, -187500.02235174447, -187500.02235174447, 187500.0, -187500.02235174447, -187500.02235174447, 187500.0, 0.032, -0.004, 1.0, 192.0, 0.0, 0.0, 0.0, 0.0, 0.0, 0.0, 0.0, 0.0, 0.0, 1.695371466138318E9, 0.0, 2023-09-22 10:31:06.138
203.0, 7023.566308446683, 187500.0, -187500.02235174447, -187500.02235174447, 187500.0, -187500.02235174447, -187500.02235174447, 187500.0, 0.032, -0.004, 1.0, 192.0, 0.0, 0.0, 0.0, 0.0, 0.0, 0.0, 0.0, 0.0, 0.0, 1.6953714661383615E9, 0.0, 2023-09-22 10:31:06.138
204.0, 8927.24203196073, 187500.0, -187500.02235174447, -187500.02235174447, 187500.0, -187500.02235174447, -187500.02235174447, 187500.0, 0.032, -0.004, 1.0, 192.0, 0.0, 0.0, 0.0, 0.0, 0.0, 0.0, 0.0, 0.0, 0.0, 1.695371466138403E9, 0.0, 2023-09-22 10:31:06.138
205.0, 7848.278623614147, 187500.0, -187500.02235174447, -187500.02235174447, 187500.0, -187500.02235174447, -187500.02235174447, 187500.0, 0.032, -0.004, 1.0, 192.0, 0.0, 0.0, 0.0, 0.0, 0.0, 0.0, 0.0, 0.0, 0.0, 1.6953714661384459E9, 0.0, 2023-09-22 10:31:06.138
206.0, 4845.411163021465, 187500.0, -187500.02235174447, -187500.02235174447, 187500.0, -187500.02235174447, -187500.02235174447, 187500.0, 0.038, -0.008, 1.002, 192.0, 1.0, 48.0, 255.0, 192.0, 31.0, 80.0, 0.0, 0.0, 0.0, 1.6953714661384883E9, 0.0, 2023-09-22 10:31:06.138
207.0, 2291.7020072581777, 187500.0, -187500.02235174447, -187500.02235174447, 187500.0, -187500.02235174447, -187500.02235174447, 187500.0, 0.038, -0.008, 1.002, 192.0, 0.0, 0.0, 0.0, 0.0, 0.0, 0.0, 0.0, 0.0, 0.0, 1.6953714661385312E9, 0.0, 2023-09-22 10:31:06.138
208.0, 330.7611144496339, 187500.0, -187500.02235174447, -187500.02235174447, 187500.0, -187500.02235174447, -187500.02235174447, 187500.0, 0.038, -0.008, 1.002, 192.0, 0.0, 0.0, 0.0, 0.0, 0.0, 0.0, 0.0, 0.0, 0.0, 1.695371466138569E9, 0.0, 2023-09-22 10:31:06.138
209.0, 1387.126909151901, 187500.0, -187500.02235174447, -187500.02235174447, 187500.0, -187500.02235174447, -187500.02235174447, 187500.0, 0.038, -0.008, 1.002, 192.0, 0.0, 0.0, 0.0, 0.0, 0.0, 0.0, 0.0, 0.0, 0.0, 1.695371466138612E9, 0.0, 2023-09-22 10:31:06.138
210.0, 4426.11478878436, 187500.0, -187500.02235174447, -187500.02235174447, 187500.0, -187500.02235174447, -187500.02235174447, 187500.0, 0.038, -0.008, 1.002, 192.0, 0.0, 0.0, 0.0, 0.0, 0.0, 0.0, 0.0, 0.0, 0.0, 1.6953714661386468E9, 0.0, 2023-09-22 10:31:06.138
211.0, 7003.762662859281, 187500.0, -187500.02235174447, -187500.02235174447, 187500.0, -187500.02235174447, -187500.02235174447, 187500.0, 0.038, -0.008, 1.002, 192.0, 0.0, 0.0, 0.0, 0.0, 0.0, 0.0, 0.0, 0.0, 0.0, 1.6953714661387458E9, 0.0, 2023-09-22 10:31:06.138
212.0, 8931.108883751498, 187500.0, -187500.02235174447, -187500.02235174447, 187500.0, -187500.02235174447, -187500.02235174447, 187500.0, 0.038, -0.008, 1.002, 192.0, 0.0, 0.0, 0.0, 0.0, 0.0, 0.0, 0.0, 0.0, 0.0, 1.6953714661387875E9, 0.0, 2023-09-22 10:31:06.138
213.0, 7795.103823554972, 187500.0, -187500.02235174447, -187500.02235174447, 187500.0, -187500.02235174447, -187500.02235174447, 187500.0, 0.038, -0.008, 1.002, 192.0, 0.0, 0.0, 0.0, 0.0, 0.0, 0.0, 0.0, 0.0, 0.0, 1.695371466138828E9, 0.0, 2023-09-22 10:31:06.138
214.0, 4774.556133098142, 187500.0, -187500.02235174447, -187500.02235174447, 187500.0, -187500.02235174447, -187500.02235174447, 187500.0, 0.038, -0.008, 1.002, 192.0, 0.0, 0.0, 0.0, 0.0, 0.0, 0.0, 0.0, 0.0, 0.0, 1.6953714661388712E9, 0.0, 2023-09-22 10:31:06.138
215.0, 2257.012099863541, 187500.0, -187500.02235174447, -187500.02235174447, 187500.0, -187500.02235174447, -187500.02235174447, 187500.0, 0.038, -0.008, 1.002, 192.0, 0.0, 0.0, 0.0, 0.0, 0.0, 0.0, 0.0, 0.0, 0.0, 1.6953714661389136E9, 0.0, 2023-09-22 10:31:06.138
216.0, 358.70079501876774, 187500.0, -187500.02235174447, -187500.02235174447, 187500.0, -187500.02235174447, -187500.02235174447, 187500.0, 0.036000000000000004, -0.01, 1.002, 192.0, 1.0, 32.0, 255.0, 176.0, 31.0, 80.0, 0.0, 0.0, 0.0, 1.6953714661389568E9, 0.0, 2023-09-22 10:31:06.138
217.0, 1395.061778433535, 187500.0, -187500.02235174447, -187500.02235174447, 187500.0, -187500.02235174447, -187500.02235174447, 187500.0, 0.036000000000000004, -0.01, 1.002, 192.0, 0.0, 0.0, 0.0, 0.0, 0.0, 0.0, 0.0, 0.0, 0.0, 1.6953714661390026E9, 0.0, 2023-09-22 10:31:06.139
218.0, 4390.687273822698, 187500.0, -187500.02235174447, -187500.02235174447, 187500.0, -187500.02235174447, -187500.02235174447, 187500.0, 0.036000000000000004, -0.01, 1.002, 192.0, 0.0, 0.0, 0.0, 0.0, 0.0, 0.0, 0.0, 0.0, 0.0, 1.6953714661391113E9, 0.0, 2023-09-22 10:31:06.139
219.0, 6963.753040284281, 187500.0, -187500.02235174447, -187500.02235174447, 187500.0, -187500.02235174447, -187500.02235174447, 187500.0, 0.036000000000000004, -0.01, 1.002, 192.0, 0.0, 0.0, 0.0, 0.0, 0.0, 0.0, 0.0, 0.0, 0.0, 1.6953714661391551E9, 0.0, 2023-09-22 10:31:06.139
220.0, 8890.272246631652, 187500.0, -187500.02235174447, -187500.02235174447, 187500.0, -187500.02235174447, -187500.02235174447, 187500.0, 0.036000000000000004, -0.01, 1.002, 192.0, 0.0, 0.0, 0.0, 0.0, 0.0, 0.0, 0.0, 0.0, 0.0, 1.6953714661391995E9, 0.0, 2023-09-22 10:31:06.139
221.0, 7841.059010155083, 187500.0, -187500.02235174447, -187500.02235174447, 187500.0, -187500.02235174447, -187500.02235174447, 187500.0, 0.036000000000000004, -0.01, 1.002, 192.0, 0.0, 0.0, 0.0, 0.0, 0.0, 0.0, 0.0, 0.0, 0.0, 1.695371466139247E9, 0.0, 2023-09-22 10:31:06.139
222.0, 4830.077866325124, 187500.0, -187500.02235174447, -187500.02235174447, 187500.0, -187500.02235174447, -187500.02235174447, 187500.0, 0.036000000000000004, -0.01, 1.002, 192.0, 0.0, 0.0, 0.0, 0.0, 0.0, 0.0, 0.0, 0.0, 0.0, 1.6953714661392963E9, 0.0, 2023-09-22 10:31:06.139
223.0, 2236.3590879868375, 187500.0, -187500.02235174447, -187500.02235174447, 187500.0, -187500.02235174447, -187500.02235174447, 187500.0, 0.036000000000000004, -0.01, 1.002, 192.0, 0.0, 0.0, 0.0, 0.0, 0.0, 0.0, 0.0, 0.0, 0.0, 1.6953714661393428E9, 0.0, 2023-09-22 10:31:06.139
224.0, 319.048800355053, 187500.0, -187500.02235174447, -187500.02235174447, 187500.0, -187500.02235174447, -187500.02235174447, 187500.0, 0.036000000000000004, -0.01, 1.002, 192.0, 0.0, 0.0, 0.0, 0.0, 0.0, 0.0, 0.0, 0.0, 0.0, 1.6953714661393905E9, 0.0, 2023-09-22 10:31:06.139
225.0, 1389.384435341887, 187500.0, -187500.02235174447, -187500.02235174447, 187500.0, -187500.02235174447, -187500.02235174447, 187500.0, 0.036000000000000004, -0.01, 1.002, 192.0, 0.0, 0.0, 0.0, 0.0, 0.0, 0.0, 0.0, 0.0, 0.0, 1.6953714661394365E9, 0.0, 2023-09-22 10:31:06.139
226.0, 4456.222588565658, 187500.0, -187500.02235174447, -187500.02235174447, 187500.0, -187500.02235174447, -187500.02235174447, 187500.0, 0.042, -0.004, 1.0, 192.0, 1.0, 80.0, 255.0, 224.0, 31.0, 64.0, 0.0, 0.0, 0.0, 1.6953714661395657E9, 0.0, 2023-09-22 10:31:06.139
227.0, 7001.259267480286, 187500.0, -187500.02235174447, -187500.02235174447, 187500.0, -187500.02235174447, -187500.02235174447, 187500.0, 0.042, -0.004, 1.0, 192.0, 0.0, 0.0, 0.0, 0.0, 0.0, 0.0, 0.0, 0.0, 0.0, 1.6953714661396177E9, 0.0, 2023-09-22 10:31:06.139
228.0, 8889.311121620074, 187500.0, -187500.02235174447, -187500.02235174447, 187500.0, -187500.02235174447, -187500.02235174447, 187500.0, 0.042, -0.004, 1.0, 192.0, 0.0, 0.0, 0.0, 0.0, 0.0, 0.0, 0.0, 0.0, 0.0, 1.6953714661396792E9, 0.0, 2023-09-22 10:31:06.139
229.0, 7802.681064925321, 187500.0, -187500.02235174447, -187500.02235174447, 187500.0, -187500.02235174447, -187500.02235174447, 187500.0, 0.042, -0.004, 1.0, 192.0, 0.0, 0.0, 0.0, 0.0, 0.0, 0.0, 0.0, 0.0, 0.0, 1.6953714661397223E9, 0.0, 2023-09-22 10:31:06.139
230.0, 4804.641581134985, 187500.0, -187500.02235174447, -187500.02235174447, 187500.0, -187500.02235174447, -187500.02235174447, 187500.0, 0.042, -0.004, 1.0, 192.0, 0.0, 0.0, 0.0, 0.0, 0.0, 0.0, 0.0, 0.0, 0.0, 1.6953714661397703E9, 0.0, 2023-09-22 10:31:06.139
231.0, 2249.6136724488347, 187500.0, -187500.02235174447, -187500.02235174447, 187500.0, -187500.02235174447, -187500.02235174447, 187500.0, 0.042, -0.004, 1.0, 192.0, 0.0, 0.0, 0.0, 0.0, 0.0, 0.0, 0.0, 0.0, 0.0, 1.695371466139818E9, 0.0, 2023-09-22 10:31:06.139
232.0, 319.3617247774273, 187500.0, -187500.02235174447, -187500.02235174447, 187500.0, -187500.02235174447, -187500.02235174447, 187500.0, 0.042, -0.004, 1.0, 192.0, 0.0, 0.0, 0.0, 0.0, 0.0, 0.0, 0.0, 0.0, 0.0, 1.6953714661398635E9, 0.0, 2023-09-22 10:31:06.139
233.0, 1337.7295539056724, 187500.0, -187500.02235174447, -187500.02235174447, 187500.0, -187500.02235174447, -187500.02235174447, 187500.0, 0.042, -0.004, 1.0, 192.0, 0.0, 0.0, 0.0, 0.0, 0.0, 0.0, 0.0, 0.0, 0.0, 1.69537146613991E9, 0.0, 2023-09-22 10:31:06.139
234.0, 4388.049767976972, 187500.0, -187500.02235174447, -187500.02235174447, 187500.0, -187500.02235174447, -187500.02235174447, 187500.0, 0.042, -0.004, 1.0, 192.0, 0.0, 0.0, 0.0, 0.0, 0.0, 0.0, 0.0, 0.0, 0.0, 1.6953714661399577E9, 0.0, 2023-09-22 10:31:06.139
235.0, 6975.264188678764, 187500.0, -187500.02235174447, -187500.02235174447, 187500.0, -187500.02235174447, -187500.02235174447, 187500.0, 0.042, -0.004, 1.0, 192.0, 0.0, 0.0, 0.0, 0.0, 0.0, 0.0, 0.0, 0.0, 0.0, 1.695371466140004E9, 0.0, 2023-09-22 10:31:06.140
236.0, 8911.059368975088, 187500.0, -187500.02235174447, -187500.02235174447, 187500.0, -187500.02235174447, -187500.02235174447, 187500.0, 0.042, -0.01, 1.006, 192.0, 1.0, 80.0, 255.0, 176.0, 31.0, 112.0, 0.0, 0.0, 0.0, 1.6953714661400533E9, 0.0, 2023-09-22 10:31:06.140
237.0, 7779.345843713981, 187500.0, -187500.02235174447, -187500.02235174447, 187500.0, -187500.02235174447, -187500.02235174447, 187500.0, 0.042, -0.01, 1.006, 192.0, 0.0, 0.0, 0.0, 0.0, 0.0, 0.0, 0.0, 0.0, 0.0, 1.695371466140116E9, 0.0, 2023-09-22 10:31:06.140
238.0, 4743.84483621655, 187500.0, -187500.02235174447, -187500.02235174447, 187500.0, -187500.02235174447, -187500.02235174447, 187500.0, 0.042, -0.01, 1.006, 192.0, 0.0, 0.0, 0.0, 0.0, 0.0, 0.0, 0.0, 0.0, 0.0, 1.6953714661401637E9, 0.0, 2023-09-22 10:31:06.140
239.0, 2195.9471340116424, 187500.0, -187500.02235174447, -187500.02235174447, 187500.0, -187500.02235174447, -187500.02235174447, 187500.0, 0.042, -0.01, 1.006, 192.0, 0.0, 0.0, 0.0, 0.0, 0.0, 0.0, 0.0, 0.0, 0.0, 1.695371466140211E9, 0.0, 2023-09-22 10:31:06.140
240.0, 315.11489333091896, 187500.0, -187500.02235174447, -187500.02235174447, 187500.0, -187500.02235174447, -187500.02235174447, 187500.0, 0.042, -0.01, 1.006, 192.0, 0.0, 0.0, 0.0, 0.0, 0.0, 0.0, 0.0, 0.0, 0.0, 1.6953714661402636E9, 0.0, 2023-09-22 10:31:06.140
241.0, 1376.7780514690937, 187500.0, -187500.02235174447, -187500.02235174447, 187500.0, -187500.02235174447, -187500.02235174447, 187500.0, 0.042, -0.01, 1.006, 192.0, 0.0, 0.0, 0.0, 0.0, 0.0, 0.0, 0.0, 0.0, 0.0, 1.6953714666141083E9, 0.0, 2023-09-22 10:31:06.614
242.0, 4431.613317920365, 187500.0, -187500.02235174447, -187500.02235174447, 187500.0, -187500.02235174447, -187500.02235174447, 187500.0, 0.042, -0.01, 1.006, 192.0, 0.0, 0.0, 0.0, 0.0, 0.0, 0.0, 0.0, 0.0, 0.0, 1.6953714666142416E9, 0.0, 2023-09-22 10:31:06.614
243.0, 7016.2796397542525, 187500.0, -187500.02235174447, -187500.02235174447, 187500.0, -187500.02235174447, -187500.02235174447, 187500.0, 0.042, -0.01, 1.006, 192.0, 0.0, 0.0, 0.0, 0.0, 0.0, 0.0, 0.0, 0.0, 0.0, 1.6953714666143544E9, 0.0, 2023-09-22 10:31:06.614
244.0, 8907.751310795702, 187500.0, -187500.02235174447, -187500.02235174447, 187500.0, -187500.02235174447, -187500.02235174447, 187500.0, 0.042, -0.01, 1.006, 192.0, 0.0, 0.0, 0.0, 0.0, 0.0, 0.0, 0.0, 0.0, 0.0, 1.6953714666144142E9, 0.0, 2023-09-22 10:31:06.614
245.0, 7839.8743676989525, 187500.0, -187500.02235174447, -187500.02235174447, 187500.0, -187500.02235174447, -187500.02235174447, 187500.0, 0.042, -0.01, 1.006, 192.0, 0.0, 0.0, 0.0, 0.0, 0.0, 0.0, 0.0, 0.0, 0.0, 1.6953714666144664E9, 0.0, 2023-09-22 10:31:06.614
246.0, 4818.544366186186, 187500.0, -187500.02235174447, -187500.02235174447, 187500.0, -187500.02235174447, -187500.02235174447, 187500.0, 0.044, -0.006, 1.004, 192.0, 1.0, 96.0, 255.0, 208.0, 31.0, 96.0, 0.0, 0.0, 0.0, 1.6953714666145163E9, 0.0, 2023-09-22 10:31:06.614
247.0, 2256.050974851963, 187500.0, -187500.02235174447, -187500.02235174447, 187500.0, -187500.02235174447, -187500.02235174447, 187500.0, 0.044, -0.006, 1.004, 192.0, 0.0, 0.0, 0.0, 0.0, 0.0, 0.0, 0.0, 0.0, 0.0, 1.6953714666145763E9, 0.0, 2023-09-22 10:31:06.614
248.0, 348.6648617583349, 187500.0, -187500.02235174447, -187500.02235174447, 187500.0, -187500.02235174447, -187500.02235174447, 187500.0, 0.044, -0.006, 1.004, 192.0, 0.0, 0.0, 0.0, 0.0, 0.0, 0.0, 0.0, 0.0, 0.0, 1.695371466614644E9, 0.0, 2023-09-22 10:31:06.614
249.0, 1389.6303045308955, 187500.0, -187500.02235174447, -187500.02235174447, 187500.0, -187500.02235174447, -187500.02235174447, 187500.0, 0.044, -0.006, 1.004, 192.0, 0.0, 0.0, 0.0, 0.0, 0.0, 0.0, 0.0, 0.0, 0.0, 1.695371466614722E9, 0.0, 2023-09-22 10:31:06.614
250.0, 4435.346059244402, 187500.0, -187500.02235174447, -187500.02235174447, 187500.0, -187500.02235174447, -187500.02235174447, 187500.0, 0.044, -0.006, 1.004, 192.0, 0.0, 0.0, 0.0, 0.0, 0.0, 0.0, 0.0, 0.0, 0.0, 1.6953714666147661E9, 0.0, 2023-09-22 10:31:06.614
251.0, 7008.858860595091, 187500.0, -187500.02235174447, -187500.02235174447, 187500.0, -187500.02235174447, -187500.02235174447, 187500.0, 0.044, -0.006, 1.004, 192.0, 0.0, 0.0, 0.0, 0.0, 0.0, 0.0, 0.0, 0.0, 0.0, 1.695371466614817E9, 0.0, 2023-09-22 10:31:06.614
252.0, 8900.263476403175, 187500.0, -187500.02235174447, -187500.02235174447, 187500.0, -187500.02235174447, -187500.02235174447, 187500.0, 0.044, -0.006, 1.004, 192.0, 0.0, 0.0, 0.0, 0.0, 0.0, 0.0, 0.0, 0.0, 0.0, 1.6953714666148667E9, 0.0, 2023-09-22 10:31:06.614
253.0, 7781.513962926146, 187500.0, -187500.02235174447, -187500.02235174447, 187500.0, -187500.02235174447, -187500.02235174447, 187500.0, 0.044, -0.006, 1.004, 192.0, 0.0, 0.0, 0.0, 0.0, 0.0, 0.0, 0.0, 0.0, 0.0, 1.6953714666149209E9, 0.0, 2023-09-22 10:31:06.614
254.0, 4780.881676778994, 187500.0, -187500.02235174447, -187500.02235174447, 187500.0, -187500.02235174447, -187500.02235174447, 187500.0, 0.044, -0.006, 1.004, 192.0, 0.0, 0.0, 0.0, 0.0, 0.0, 0.0, 0.0, 0.0, 0.0, 1.6953714666149693E9, 0.0, 2023-09-22 10:31:06.614
255.0, 2259.8507714093653, 187500.0, -187500.02235174447, -187500.02235174447, 187500.0, -187500.02235174447, -187500.02235174447, 187500.0, 0.044, -0.006, 1.004, 192.0, 0.0, 0.0, 0.0, 0.0, 0.0, 0.0, 0.0, 0.0, 0.0, 1.6953714666150172E9, 0.0, 2023-09-22 10:31:06.615
0.0, 371.44128935829275, 187500.0, -187500.02235174447, -187500.02235174447, 187500.0, -187500.02235174447, -187500.02235174447, 187500.0, 0.034, -0.012, 1.006, 192.0, 1.0, 16.0, 255.0, 160.0, 31.0, 112.0, 0.0, 0.0, 0.0, 1.6953714666154392E9, 0.0, 2023-09-22 10:31:06.615
1.0, 1425.2366334481997, 187500.0, -187500.02235174447, -187500.02235174447, 187500.0, -187500.02235174447, -187500.02235174447, 187500.0, 0.034, -0.012, 1.006, 192.0, 0.0, 0.0, 0.0, 0.0, 0.0, 0.0, 0.0, 0.0, 0.0, 1.6953714666154945E9, 0.0, 2023-09-22 10:31:06.615
2.0, 4421.666791637754, 187500.0, -187500.02235174447, -187500.02235174447, 187500.0, -187500.02235174447, -187500.02235174447, 187500.0, 0.034, -0.012, 1.006, 192.0, 0.0, 0.0, 0.0, 0.0, 0.0, 0.0, 0.0, 0.0, 0.0, 1.695371466615542E9, 0.0, 2023-09-22 10:31:06.615
3.0, 6982.528505626739, 187500.0, -187500.02235174447, -187500.02235174447, 187500.0, -187500.02235174447, -187500.02235174447, 187500.0, 0.034, -0.012, 1.006, 192.0, 0.0, 0.0, 0.0, 0.0, 0.0, 0.0, 0.0, 0.0, 0.0, 1.695371466615589E9, 0.0, 2023-09-22 10:31:06.615
4.0, 8875.363633079962, 187500.0, -187500.02235174447, -187500.02235174447, 187500.0, -187500.02235174447, -187500.02235174447, 187500.0, 0.034, -0.012, 1.006, 192.0, 0.0, 0.0, 0.0, 0.0, 0.0, 0.0, 0.0, 0.0, 0.0, 1.6953714666156373E9, 0.0, 2023-09-22 10:31:06.615
5.0, 7770.740422098687, 187500.0, -187500.02235174447, -187500.02235174447, 187500.0, -187500.02235174447, -187500.02235174447, 187500.0, 0.034, -0.012, 1.006, 192.0, 0.0, 0.0, 0.0, 0.0, 0.0, 0.0, 0.0, 0.0, 0.0, 1.6953714666156852E9, 0.0, 2023-09-22 10:31:06.615
6.0, 4762.866170748016, 187500.0, -187500.02235174447, -187500.02235174447, 187500.0, -187500.02235174447, -187500.02235174447, 187500.0, 0.034, -0.012, 1.006, 192.0, 0.0, 0.0, 0.0, 0.0, 0.0, 0.0, 0.0, 0.0, 0.0, 1.6953714666157677E9, 0.0, 2023-09-22 10:31:06.615
7.0, 2190.828584531377, 187500.0, -187500.02235174447, -187500.02235174447, 187500.0, -187500.02235174447, -187500.02235174447, 187500.0, 0.034, -0.012, 1.006, 192.0, 0.0, 0.0, 0.0, 0.0, 0.0, 0.0, 0.0, 0.0, 0.0, 1.6953714666158078E9, 0.0, 2023-09-22 10:31:06.615
8.0, 289.5444976740477, 187500.0, -187500.02235174447, -187500.02235174447, 187500.0, -187500.02235174447, -187500.02235174447, 187500.0, 0.034, -0.012, 1.006, 192.0, 0.0, 0.0, 0.0, 0.0, 0.0, 0.0, 0.0, 0.0, 0.0, 1.6953714666158469E9, 0.0, 2023-09-22 10:31:06.615
9.0, 1396.9393249677807, 187500.0, -187500.02235174447, -187500.02235174447, 187500.0, -187500.02235174447, -187500.02235174447, 187500.0, 0.034, -0.012, 1.006, 192.0, 0.0, 0.0, 0.0, 0.0, 0.0, 0.0, 0.0, 0.0, 0.0, 1.6953714666158903E9, 0.0, 2023-09-22 10:31:06.615
10.0, 4433.915547599262, 187500.0, -187500.02235174447, -187500.02235174447, 187500.0, -187500.02235174447, -187500.02235174447, 187500.0, 0.034, -0.012, 1.008, 192.0, 1.0, 16.0, 255.0, 160.0, 31.0, 128.0, 0.0, 0.0, 0.0, 1.6953714666159394E9, 0.0, 2023-09-22 10:31:06.615
11.0, 6981.366214915063, 187500.0, -187500.02235174447, -187500.02235174447, 187500.0, -187500.02235174447, -187500.02235174447, 187500.0, 0.034, -0.012, 1.008, 192.0, 0.0, 0.0, 0.0, 0.0, 0.0, 0.0, 0.0, 0.0, 0.0, 1.6953714666159892E9, 0.0, 2023-09-22 10:31:06.615
12.0, 8901.582229326037, 187500.0, -187500.02235174447, -187500.02235174447, 187500.0, -187500.02235174447, -187500.02235174447, 187500.0, 0.034, -0.012, 1.008, 192.0, 0.0, 0.0, 0.0, 0.0, 0.0, 0.0, 0.0, 0.0, 0.0, 1.6953714666160357E9, 0.0, 2023-09-22 10:31:06.616
13.0, 7809.319533028547, 187500.0, -187500.02235174447, -187500.02235174447, 187500.0, -187500.02235174447, -187500.02235174447, 187500.0, 0.034, -0.012, 1.008, 192.0, 0.0, 0.0, 0.0, 0.0, 0.0, 0.0, 0.0, 0.0, 0.0, 1.695371466616084E9, 0.0, 2023-09-22 10:31:06.616
14.0, 4780.2781796787, 187500.0, -187500.02235174447, -187500.02235174447, 187500.0, -187500.02235174447, -187500.02235174447, 187500.0, 0.034, -0.012, 1.008, 192.0, 0.0, 0.0, 0.0, 0.0, 0.0, 0.0, 0.0, 0.0, 0.0, 1.6953714666161397E9, 0.0, 2023-09-22 10:31:06.616
15.0, 2226.3231547264045, 187500.0, -187500.02235174447, -187500.02235174447, 187500.0, -187500.02235174447, -187500.02235174447, 187500.0, 0.034, -0.012, 1.008, 192.0, 0.0, 0.0, 0.0, 0.0, 0.0, 0.0, 0.0, 0.0, 0.0, 1.6953714666161864E9, 0.0, 2023-09-22 10:31:06.616
16.0, 311.69507642925697, 187500.0, -187500.02235174447, -187500.02235174447, 187500.0, -187500.02235174447, -187500.02235174447, 187500.0, 0.034, -0.012, 1.008, 192.0, 0.0, 0.0, 0.0, 0.0, 0.0, 0.0, 0.0, 0.0, 0.0, 1.6953714666163373E9, 0.0, 2023-09-22 10:31:06.616
17.0, 1372.3971095558536, 187500.0, -187500.02235174447, -187500.02235174447, 187500.0, -187500.02235174447, -187500.02235174447, 187500.0, 0.034, -0.012, 1.008, 192.0, 0.0, 0.0, 0.0, 0.0, 0.0, 0.0, 0.0, 0.0, 0.0, 1.6953714666163824E9, 0.0, 2023-09-22 10:31:06.616
18.0, 4389.256762177559, 187500.0, -187500.02235174447, -187500.02235174447, 187500.0, -187500.02235174447, -187500.02235174447, 187500.0, 0.034, -0.012, 1.008, 192.0, 0.0, 0.0, 0.0, 0.0, 0.0, 0.0, 0.0, 0.0, 0.0, 1.6953714666164248E9, 0.0, 2023-09-22 10:31:06.616
19.0, 6977.253493935286, 187500.0, -187500.02235174447, -187500.02235174447, 187500.0, -187500.02235174447, -187500.02235174447, 187500.0, 0.034, -0.012, 1.008, 192.0, 0.0, 0.0, 0.0, 0.0, 0.0, 0.0, 0.0, 0.0, 0.0, 1.695371466616469E9, 0.0, 2023-09-22 10:31:06.616
20.0, 8865.126534119432, 187500.0, -187500.02235174447, -187500.02235174447, 187500.0, -187500.02235174447, -187500.02235174447, 187500.0, 0.034, -0.012, 1.008, 192.0, 1.0, 16.0, 255.0, 160.0, 31.0, 128.0, 0.0, 0.0, 0.0, 1.695371466616513E9, 0.0, 2023-09-22 10:31:06.616
21.0, 7842.310707844581, 187500.0, -187500.02235174447, -187500.02235174447, 187500.0, -187500.02235174447, -187500.02235174447, 187500.0, 0.034, -0.012, 1.008, 192.0, 0.0, 0.0, 0.0, 0.0, 0.0, 0.0, 0.0, 0.0, 0.0, 1.695371466616557E9, 0.0, 2023-09-22 10:31:06.616
22.0, 4813.694037639384, 187500.0, -187500.02235174447, -187500.02235174447, 187500.0, -187500.02235174447, -187500.02235174447, 187500.0, 0.034, -0.012, 1.008, 192.0, 0.0, 0.0, 0.0, 0.0, 0.0, 0.0, 0.0, 0.0, 0.0, 1.6953714666166E9, 0.0, 2023-09-22 10:31:06.616
23.0, 2225.026753547997, 187500.0, -187500.02235174447, -187500.02235174447, 187500.0, -187500.02235174447, -187500.02235174447, 187500.0, 0.034, -0.012, 1.008, 192.0, 0.0, 0.0, 0.0, 0.0, 0.0, 0.0, 0.0, 0.0, 0.0, 1.69537146661665E9, 0.0, 2023-09-22 10:31:06.616
24.0, 298.0605123115197, 187500.0, -187500.02235174447, -187500.02235174447, 187500.0, -187500.02235174447, -187500.02235174447, 187500.0, 0.034, -0.012, 1.008, 192.0, 0.0, 0.0, 0.0, 0.0, 0.0, 0.0, 0.0, 0.0, 0.0, 1.6953714666167064E9, 0.0, 2023-09-22 10:31:06.616
25.0, 1381.2260486157, 187500.0, -187500.02235174447, -187500.02235174447, 187500.0, -187500.02235174447, -187500.02235174447, 187500.0, 0.034, -0.012, 1.008, 192.0, 0.0, 0.0, 0.0, 0.0, 0.0, 0.0, 0.0, 0.0, 0.0, 1.695371466616753E9, 0.0, 2023-09-22 10:31:06.616
26.0, 4422.82908234943, 187500.0, -187500.02235174447, -187500.02235174447, 187500.0, -187500.02235174447, -187500.02235174447, 187500.0, 0.034, -0.012, 1.008, 192.0, 0.0, 0.0, 0.0, 0.0, 0.0, 0.0, 0.0, 0.0, 0.0, 1.695371466616798E9, 0.0, 2023-09-22 10:31:06.616
27.0, 7006.847203594113, 187500.0, -187500.02235174447, -187500.02235174447, 187500.0, -187500.02235174447, -187500.02235174447, 187500.0, 0.034, -0.012, 1.008, 192.0, 0.0, 0.0, 0.0, 0.0, 0.0, 0.0, 0.0, 0.0, 0.0, 1.6953714666168406E9, 0.0, 2023-09-22 10:31:06.616
28.0, 8886.919484963357, 187500.0, -187500.02235174447, -187500.02235174447, 187500.0, -187500.02235174447, -187500.02235174447, 187500.0, 0.034, -0.012, 1.008, 192.0, 0.0, 0.0, 0.0, 0.0, 0.0, 0.0, 0.0, 0.0, 0.0, 1.6953714666168847E9, 0.0, 2023-09-22 10:31:06.616
29.0, 7866.070612200572, 187500.0, -187500.02235174447, -187500.02235174447, 187500.0, -187500.02235174447, -187500.02235174447, 187500.0, 0.034, -0.012, 1.008, 192.0, 0.0, 0.0, 0.0, 0.0, 0.0, 0.0, 0.0, 0.0, 0.0, 1.6953714666169293E9, 0.0, 2023-09-22 10:31:06.616
30.0, 4890.069948443169, 187500.0, -187500.02235174447, -187500.02235174447, 187500.0, -187500.02235174447, -187500.02235174447, 187500.0, 0.034, -0.01, 1.004, 192.0, 1.0, 16.0, 255.0, 176.0, 31.0, 96.0, 0.0, 0.0, 0.0, 1.695371466616974E9, 0.0, 2023-09-22 10:31:06.616
31.0, 2333.879749045342, 187500.0, -187500.02235174447, -187500.02235174447, 187500.0, -187500.02235174447, -187500.02235174447, 187500.0, 0.034, -0.01, 1.004, 192.0, 0.0, 0.0, 0.0, 0.0, 0.0, 0.0, 0.0, 0.0, 0.0, 1.695371466617074E9, 0.0, 2023-09-22 10:31:06.617
32.0, 383.48887961970325, 187500.0, -187500.02235174447, -187500.02235174447, 187500.0, -187500.02235174447, -187500.02235174447, 187500.0, 0.034, -0.01, 1.004, 192.0, 0.0, 0.0, 0.0, 0.0, 0.0, 0.0, 0.0, 0.0, 0.0, 1.6953714666171193E9, 0.0, 2023-09-22 10:31:06.617
33.0, 1431.4951218956855, 187500.0, -187500.02235174447, -187500.02235174447, 187500.0, -187500.02235174447, -187500.02235174447, 187500.0, 0.034, -0.01, 1.004, 192.0, 0.0, 0.0, 0.0, 0.0, 0.0, 0.0, 0.0, 0.0, 0.0, 1.6953714666171625E9, 0.0, 2023-09-22 10:31:06.617
34.0, 4465.2303415811475, 187500.0, -187500.02235174447, -187500.02235174447, 187500.0, -187500.02235174447, -187500.02235174447, 187500.0, 0.034, -0.01, 1.004, 192.0, 0.0, 0.0, 0.0, 0.0, 0.0, 0.0, 0.0, 0.0, 0.0, 1.695371466617209E9, 0.0, 2023-09-22 10:31:06.617
35.0, 7036.843244653135, 187500.0, -187500.02235174447, -187500.02235174447, 187500.0, -187500.02235174447, -187500.02235174447, 187500.0, 0.034, -0.01, 1.004, 192.0, 0.0, 0.0, 0.0, 0.0, 0.0, 0.0, 0.0, 0.0, 0.0, 1.6953714666172535E9, 0.0, 2023-09-22 10:31:06.617
36.0, 8955.092305552043, 187500.0, -187500.02235174447, -187500.02235174447, 187500.0, -187500.02235174447, -187500.02235174447, 187500.0, 0.034, -0.01, 1.004, 192.0, 0.0, 0.0, 0.0, 0.0, 0.0, 0.0, 0.0, 0.0, 0.0, 1.695371466617298E9, 0.0, 2023-09-22 10:31:06.617
37.0, 7864.3495278775135, 187500.0, -187500.02235174447, -187500.02235174447, 187500.0, -187500.02235174447, -187500.02235174447, 187500.0, 0.034, -0.01, 1.004, 192.0, 0.0, 0.0, 0.0, 0.0, 0.0, 0.0, 0.0, 0.0, 0.0, 1.6953714666173415E9, 0.0, 2023-09-22 10:31:06.617
38.0, 4810.385979459998, 187500.0, -187500.02235174447, -187500.02235174447, 187500.0, -187500.02235174447, -187500.02235174447, 187500.0, 0.034, -0.01, 1.004, 192.0, 0.0, 0.0, 0.0, 0.0, 0.0, 0.0, 0.0, 0.0, 0.0, 1.695371466617386E9, 0.0, 2023-09-22 10:31:06.617
39.0, 2263.11412609984, 187500.0, -187500.02235174447, -187500.02235174447, 187500.0, -187500.02235174447, -187500.02235174447, 187500.0, 0.034, -0.01, 1.004, 192.0, 0.0, 0.0, 0.0, 0.0, 0.0, 0.0, 0.0, 0.0, 0.0, 1.6953714666174307E9, 0.0, 2023-09-22 10:31:06.617
40.0, 357.15852465135157, 187500.0, -187500.02235174447, -187500.02235174447, 187500.0, -187500.02235174447, -187500.02235174447, 187500.0, 0.032, -0.01, 1.002, 192.0, 1.0, 0.0, 255.0, 176.0, 31.0, 80.0, 0.0, 0.0, 0.0, 1.6953714666174753E9, 0.0, 2023-09-22 10:31:06.617
41.0, 1411.1997379302668, 187500.0, -187500.02235174447, -187500.02235174447, 187500.0, -187500.02235174447, -187500.02235174447, 187500.0, 0.032, -0.01, 1.002, 192.0, 0.0, 0.0, 0.0, 0.0, 0.0, 0.0, 0.0, 0.0, 0.0, 1.695371466617512E9, 0.0, 2023-09-22 10:31:06.617
42.0, 4431.97094583165, 187500.0, -187500.02235174447, -187500.02235174447, 187500.0, -187500.02235174447, -187500.02235174447, 187500.0, 0.032, -0.01, 1.002, 192.0, 0.0, 0.0, 0.0, 0.0, 0.0, 0.0, 0.0, 0.0, 0.0, 1.695371466617553E9, 0.0, 2023-09-22 10:31:06.617
43.0, 6998.644113379016, 187500.0, -187500.02235174447, -187500.02235174447, 187500.0, -187500.02235174447, -187500.02235174447, 187500.0, 0.032, -0.01, 1.002, 192.0, 0.0, 0.0, 0.0, 0.0, 0.0, 0.0, 0.0, 0.0, 0.0, 1.6953714666175957E9, 0.0, 2023-09-22 10:31:06.617
44.0, 8913.607467842992, 187500.0, -187500.02235174447, -187500.02235174447, 187500.0, -187500.02235174447, -187500.02235174447, 187500.0, 0.032, -0.01, 1.002, 192.0, 0.0, 0.0, 0.0, 0.0, 0.0, 0.0, 0.0, 0.0, 0.0, 1.6953714666176388E9, 0.0, 2023-09-22 10:31:06.617
45.0, 7824.630477980433, 187500.0, -187500.02235174447, -187500.02235174447, 187500.0, -187500.02235174447, -187500.02235174447, 187500.0, 0.032, -0.01, 1.002, 192.0, 0.0, 0.0, 0.0, 0.0, 0.0, 0.0, 0.0, 0.0, 0.0, 1.6953714666176815E9, 0.0, 2023-09-22 10:31:06.617
46.0, 4804.976857301815, 187500.0, -187500.02235174447, -187500.02235174447, 187500.0, -187500.02235174447, -187500.02235174447, 187500.0, 0.032, -0.01, 1.002, 192.0, 0.0, 0.0, 0.0, 0.0, 0.0, 0.0, 0.0, 0.0, 0.0, 1.6953714666178484E9, 0.0, 2023-09-22 10:31:06.617
47.0, 2248.1608090592395, 187500.0, -187500.02235174447, -187500.02235174447, 187500.0, -187500.02235174447, -187500.02235174447, 187500.0, 0.032, -0.01, 1.002, 192.0, 0.0, 0.0, 0.0, 0.0, 0.0, 0.0, 0.0, 0.0, 0.0, 1.6953714666179826E9, 0.0, 2023-09-22 10:31:06.617
48.0, 327.0060213811423, 187500.0, -187500.02235174447, -187500.02235174447, 187500.0, -187500.02235174447, -187500.02235174447, 187500.0, 0.032, -0.01, 1.002, 192.0, 0.0, 0.0, 0.0, 0.0, 0.0, 0.0, 0.0, 0.0, 0.0, 1.695371466618031E9, 0.0, 2023-09-22 10:31:06.618
49.0, 1404.9188977383253, 187500.0, -187500.02235174447, -187500.02235174447, 187500.0, -187500.02235174447, -187500.02235174447, 187500.0, 0.032, -0.01, 1.002, 192.0, 0.0, 0.0, 0.0, 0.0, 0.0, 0.0, 0.0, 0.0, 0.0, 1.6953714666180732E9, 0.0, 2023-09-22 10:31:06.618
50.0, 4437.357716245379, 187500.0, -187500.02235174447, -187500.02235174447, 187500.0, -187500.02235174447, -187500.02235174447, 187500.0, 0.034, -0.008, 1.006, 192.0, 1.0, 16.0, 255.0, 192.0, 31.0, 112.0, 0.0, 0.0, 0.0, 1.695371466618116E9, 0.0, 2023-09-22 10:31:06.618
51.0, 7015.72084614287, 187500.0, -187500.02235174447, -187500.02235174447, 187500.0, -187500.02235174447, -187500.02235174447, 187500.0, 0.034, -0.008, 1.006, 192.0, 0.0, 0.0, 0.0, 0.0, 0.0, 0.0, 0.0, 0.0, 0.0, 1.695371466618164E9, 0.0, 2023-09-22 10:31:06.618
52.0, 8920.268287690675, 187500.0, -187500.02235174447, -187500.02235174447, 187500.0, -187500.02235174447, -187500.02235174447, 187500.0, 0.034, -0.008, 1.006, 192.0, 0.0, 0.0, 0.0, 0.0, 0.0, 0.0, 0.0, 0.0, 0.0, 1.69537146661821E9, 0.0, 2023-09-22 10:31:06.618
53.0, 7820.830681423031, 187500.0, -187500.02235174447, -187500.02235174447, 187500.0, -187500.02235174447, -187500.02235174447, 187500.0, 0.034, -0.008, 1.006, 192.0, 0.0, 0.0, 0.0, 0.0, 0.0, 0.0, 0.0, 0.0, 0.0, 1.695371466618258E9, 0.0, 2023-09-22 10:31:06.618
54.0, 4803.345179956577, 187500.0, -187500.02235174447, -187500.02235174447, 187500.0, -187500.02235174447, -187500.02235174447, 187500.0, 0.034, -0.008, 1.006, 192.0, 0.0, 0.0, 0.0, 0.0, 0.0, 0.0, 0.0, 0.0, 0.0, 1.6953714666183035E9, 0.0, 2023-09-22 10:31:06.618
55.0, 2280.503783286069, 187500.0, -187500.02235174447, -187500.02235174447, 187500.0, -187500.02235174447, -187500.02235174447, 187500.0, 0.034, -0.008, 1.006, 192.0, 0.0, 0.0, 0.0, 0.0, 0.0, 0.0, 0.0, 0.0, 0.0, 1.6953714666183493E9, 0.0, 2023-09-22 10:31:06.618
56.0, 330.4258382828043, 187500.0, -187500.02235174447, -187500.02235174447, 187500.0, -187500.02235174447, -187500.02235174447, 187500.0, 0.034, -0.008, 1.006, 192.0, 0.0, 0.0, 0.0, 0.0, 0.0, 0.0, 0.0, 0.0, 0.0, 1.6953714666183963E9, 0.0, 2023-09-22 10:31:06.618
57.0, 1387.1716126408116, 187500.0, -187500.02235174447, -187500.02235174447, 187500.0, -187500.02235174447, -187500.02235174447, 187500.0, 0.034, -0.008, 1.006, 192.0, 0.0, 0.0, 0.0, 0.0, 0.0, 0.0, 0.0, 0.0, 0.0, 1.6953714666184466E9, 0.0, 2023-09-22 10:31:06.618
58.0, 4415.274192723536, 187500.0, -187500.02235174447, -187500.02235174447, 187500.0, -187500.02235174447, -187500.02235174447, 187500.0, 0.034, -0.008, 1.006, 192.0, 0.0, 0.0, 0.0, 0.0, 0.0, 0.0, 0.0, 0.0, 0.0, 1.6953714666184933E9, 0.0, 2023-09-22 10:31:06.618
59.0, 7004.321456470663, 187500.0, -187500.02235174447, -187500.02235174447, 187500.0, -187500.02235174447, -187500.02235174447, 187500.0, 0.034, -0.008, 1.006, 192.0, 0.0, 0.0, 0.0, 0.0, 0.0, 0.0, 0.0, 0.0, 0.0, 1.695371466618538E9, 0.0, 2023-09-22 10:31:06.618
60.0, 8904.42090087186, 187500.0, -187500.02235174447, -187500.02235174447, 187500.0, -187500.02235174447, -187500.02235174447, 187500.0, 0.04, -0.012, 1.01, 192.0, 1.0, 64.0, 255.0, 160.0, 31.0, 144.0, 0.0, 0.0, 0.0, 1.6953714666185868E9, 0.0, 2023-09-22 10:31:06.618
61.0, 7852.212530638281, 187500.0, -187500.02235174447, -187500.02235174447, 187500.0, -187500.02235174447, -187500.02235174447, 187500.0, 0.04, -0.012, 1.01, 192.0, 0.0, 0.0, 0.0, 0.0, 0.0, 0.0, 0.0, 0.0, 0.0, 1.6953714666187384E9, 0.0, 2023-09-22 10:31:06.618
62.0, 4840.829055408127, 187500.0, -187500.02235174447, -187500.02235174447, 187500.0, -187500.02235174447, -187500.02235174447, 187500.0, 0.04, -0.012, 1.01, 192.0, 0.0, 0.0, 0.0, 0.0, 0.0, 0.0, 0.0, 0.0, 0.0, 1.6953714666187868E9, 0.0, 2023-09-22 10:31:06.618
63.0, 2262.309463299449, 187500.0, -187500.02235174447, -187500.02235174447, 187500.0, -187500.02235174447, -187500.02235174447, 187500.0, 0.04, -0.012, 1.01, 192.0, 0.0, 0.0, 0.0, 0.0, 0.0, 0.0, 0.0, 0.0, 0.0, 1.6953714666188347E9, 0.0, 2023-09-22 10:31:06.618
64.0, 348.48604780269244, 187500.0, -187500.02235174447, -187500.02235174447, 187500.0, -187500.02235174447, -187500.02235174447, 187500.0, 0.04, -0.012, 1.01, 192.0, 0.0, 0.0, 0.0, 0.0, 0.0, 0.0, 0.0, 0.0, 0.0, 1.6953714666188807E9, 0.0, 2023-09-22 10:31:06.618
65.0, 1456.417316963353, 187500.0, -187500.02235174447, -187500.02235174447, 187500.0, -187500.02235174447, -187500.02235174447, 187500.0, 0.04, -0.012, 1.01, 192.0, 0.0, 0.0, 0.0, 0.0, 0.0, 0.0, 0.0, 0.0, 0.0, 1.695371466618928E9, 0.0, 2023-09-22 10:31:06.618
66.0, 4496.232211140658, 187500.0, -187500.02235174447, -187500.02235174447, 187500.0, -187500.02235174447, -187500.02235174447, 187500.0, 0.04, -0.012, 1.01, 192.0, 0.0, 0.0, 0.0, 0.0, 0.0, 0.0, 0.0, 0.0, 0.0, 1.695371466618976E9, 0.0, 2023-09-22 10:31:06.618
67.0, 7038.474921998373, 187500.0, -187500.02235174447, -187500.02235174447, 187500.0, -187500.02235174447, -187500.02235174447, 187500.0, 0.04, -0.012, 1.01, 192.0, 0.0, 0.0, 0.0, 0.0, 0.0, 0.0, 0.0, 0.0, 0.0, 1.6953714666190245E9, 0.0, 2023-09-22 10:31:06.619
68.0, 8936.29448846513, 187500.0, -187500.02235174447, -187500.02235174447, 187500.0, -187500.02235174447, -187500.02235174447, 187500.0, 0.04, -0.012, 1.01, 192.0, 0.0, 0.0, 0.0, 0.0, 0.0, 0.0, 0.0, 0.0, 0.0, 1.695371466619073E9, 0.0, 2023-09-22 10:31:06.619
69.0, 7840.902547943896, 187500.0, -187500.02235174447, -187500.02235174447, 187500.0, -187500.02235174447, -187500.02235174447, 187500.0, 0.04, -0.012, 1.01, 192.0, 0.0, 0.0, 0.0, 0.0, 0.0, 0.0, 0.0, 0.0, 0.0, 1.6953714666191187E9, 0.0, 2023-09-22 10:31:06.619
70.0, 4830.904880869971, 187500.0, -187500.02235174447, -187500.02235174447, 187500.0, -187500.02235174447, -187500.02235174447, 187500.0, 0.042, -0.012, 1.006, 192.0, 1.0, 80.0, 255.0, 160.0, 31.0, 112.0, 0.0, 0.0, 0.0, 1.6953714666191647E9, 0.0, 2023-09-22 10:31:06.619
71.0, 2292.6184287808455, 187500.0, -187500.02235174447, -187500.02235174447, 187500.0, -187500.02235174447, -187500.02235174447, 187500.0, 0.042, -0.012, 1.006, 192.0, 0.0, 0.0, 0.0, 0.0, 0.0, 0.0, 0.0, 0.0, 0.0, 1.6953714666192079E9, 0.0, 2023-09-22 10:31:06.619
72.0, 366.4568503447593, 187500.0, -187500.02235174447, -187500.02235174447, 187500.0, -187500.02235174447, -187500.02235174447, 187500.0, 0.042, -0.012, 1.006, 192.0, 0.0, 0.0, 0.0, 0.0, 0.0, 0.0, 0.0, 0.0, 0.0, 1.6953714666192513E9, 0.0, 2023-09-22 10:31:06.619
73.0, 1424.1637497143447, 187500.0, -187500.02235174447, -187500.02235174447, 187500.0, -187500.02235174447, -187500.02235174447, 187500.0, 0.042, -0.012, 1.006, 192.0, 0.0, 0.0, 0.0, 0.0, 0.0, 0.0, 0.0, 0.0, 0.0, 1.6953714666192913E9, 0.0, 2023-09-22 10:31:06.619
74.0, 4470.88533292834, 187500.0, -187500.02235174447, -187500.02235174447, 187500.0, -187500.02235174447, -187500.02235174447, 187500.0, 0.042, -0.012, 1.006, 192.0, 0.0, 0.0, 0.0, 0.0, 0.0, 0.0, 0.0, 0.0, 0.0, 1.6953714666193323E9, 0.0, 2023-09-22 10:31:06.619
75.0, 7026.695552670426, 187500.0, -187500.02235174447, -187500.02235174447, 187500.0, -187500.02235174447, -187500.02235174447, 187500.0, 0.042, -0.012, 1.006, 192.0, 0.0, 0.0, 0.0, 0.0, 0.0, 0.0, 0.0, 0.0, 0.0, 1.6953714666193745E9, 0.0, 2023-09-22 10:31:06.619
76.0, 8943.536453668648, 187500.0, -187500.02235174447, -187500.02235174447, 187500.0, -187500.02235174447, -187500.02235174447, 187500.0, 0.042, -0.012, 1.006, 192.0, 0.0, 0.0, 0.0, 0.0, 0.0, 0.0, 0.0, 0.0, 0.0, 1.6953714666195295E9, 0.0, 2023-09-22 10:31:06.619
77.0, 7845.842283468519, 187500.0, -187500.02235174447, -187500.02235174447, 187500.0, -187500.02235174447, -187500.02235174447, 187500.0, 0.042, -0.012, 1.006, 192.0, 0.0, 0.0, 0.0, 0.0, 0.0, 0.0, 0.0, 0.0, 0.0, 1.6953714666195753E9, 0.0, 2023-09-22 10:31:06.619
78.0, 4813.872851595027, 187500.0, -187500.02235174447, -187500.02235174447, 187500.0, -187500.02235174447, -187500.02235174447, 187500.0, 0.042, -0.012, 1.006, 192.0, 0.0, 0.0, 0.0, 0.0, 0.0, 0.0, 0.0, 0.0, 0.0, 1.695371466619625E9, 0.0, 2023-09-22 10:31:06.619
79.0, 2294.831251481921, 187500.0, -187500.02235174447, -187500.02235174447, 187500.0, -187500.02235174447, -187500.02235174447, 187500.0, 0.042, -0.012, 1.006, 192.0, 0.0, 0.0, 0.0, 0.0, 0.0, 0.0, 0.0, 0.0, 0.0, 1.6953714666196785E9, 0.0, 2023-09-22 10:31:06.619
80.0, 413.9990108011974, 187500.0, -187500.02235174447, -187500.02235174447, 187500.0, -187500.02235174447, -187500.02235174447, 187500.0, 0.044, -0.01, 1.006, 192.0, 1.0, 96.0, 255.0, 176.0, 31.0, 112.0, 0.0, 0.0, 0.0, 1.6953714666197686E9, 0.0, 2023-09-22 10:31:06.619
81.0, 1459.5242094426405, 187500.0, -187500.02235174447, -187500.02235174447, 187500.0, -187500.02235174447, -187500.02235174447, 187500.0, 0.044, -0.01, 1.006, 192.0, 0.0, 0.0, 0.0, 0.0, 0.0, 0.0, 0.0, 0.0, 0.0, 1.695371466619831E9, 0.0, 2023-09-22 10:31:06.619
82.0, 4464.403327036301, 187500.0, -187500.02235174447, -187500.02235174447, 187500.0, -187500.02235174447, -187500.02235174447, 187500.0, 0.044, -0.01, 1.006, 192.0, 0.0, 0.0, 0.0, 0.0, 0.0, 0.0, 0.0, 0.0, 0.0, 1.695371466619881E9, 0.0, 2023-09-22 10:31:06.619
83.0, 7001.773357602759, 187500.0, -187500.02235174447, -187500.02235174447, 187500.0, -187500.02235174447, -187500.02235174447, 187500.0, 0.044, -0.01, 1.006, 192.0, 0.0, 0.0, 0.0, 0.0, 0.0, 0.0, 0.0, 0.0, 0.0, 1.6953714666199336E9, 0.0, 2023-09-22 10:31:06.619
84.0, 8914.792110299124, 187500.0, -187500.02235174447, -187500.02235174447, 187500.0, -187500.02235174447, -187500.02235174447, 187500.0, 0.044, -0.01, 1.006, 192.0, 0.0, 0.0, 0.0, 0.0, 0.0, 0.0, 0.0, 0.0, 0.0, 1.695371466619986E9, 0.0, 2023-09-22 10:31:06.619
85.0, 7872.418507625879, 187500.0, -187500.02235174447, -187500.02235174447, 187500.0, -187500.02235174447, -187500.02235174447, 187500.0, 0.044, -0.01, 1.006, 192.0, 0.0, 0.0, 0.0, 0.0, 0.0, 0.0, 0.0, 0.0, 0.0, 1.695371466620039E9, 0.0, 2023-09-22 10:31:06.620
86.0, 4883.207962895389, 187500.0, -187500.02235174447, -187500.02235174447, 187500.0, -187500.02235174447, -187500.02235174447, 187500.0, 0.044, -0.01, 1.006, 192.0, 0.0, 0.0, 0.0, 0.0, 0.0, 0.0, 0.0, 0.0, 0.0, 1.695371466620093E9, 0.0, 2023-09-22 10:31:06.620
87.0, 2287.611638022857, 187500.0, -187500.02235174447, -187500.02235174447, 187500.0, -187500.02235174447, -187500.02235174447, 187500.0, 0.044, -0.01, 1.006, 192.0, 0.0, 0.0, 0.0, 0.0, 0.0, 0.0, 0.0, 0.0, 0.0, 1.6953714666201363E9, 0.0, 2023-09-22 10:31:06.620
88.0, 336.6172714969244, 187500.0, -187500.02235174447, -187500.02235174447, 187500.0, -187500.02235174447, -187500.02235174447, 187500.0, 0.044, -0.01, 1.006, 192.0, 0.0, 0.0, 0.0, 0.0, 0.0, 0.0, 0.0, 0.0, 0.0, 1.6953714666201878E9, 0.0, 2023-09-22 10:31:06.620
89.0, 1421.705057824261, 187500.0, -187500.02235174447, -187500.02235174447, 187500.0, -187500.02235174447, -187500.02235174447, 187500.0, 0.044, -0.006, 1.004, 192.0, 1.0, 96.0, 255.0, 208.0, 31.0, 96.0, 0.0, 0.0, 0.0, 1.6953714666202545E9, 0.0, 2023-09-22 10:31:06.620
90.0, 4483.581123778954, 187500.0, -187500.02235174447, -187500.02235174447, 187500.0, -187500.02235174447, -187500.02235174447, 187500.0, 0.044, -0.006, 1.004, 192.0, 0.0, 0.0, 0.0, 0.0, 0.0, 0.0, 0.0, 0.0, 0.0, 1.6953714666203208E9, 0.0, 2023-09-22 10:31:06.620
91.0, 7044.398134279029, 187500.0, -187500.02235174447, -187500.02235174447, 187500.0, -187500.02235174447, -187500.02235174447, 187500.0, 0.044, -0.006, 1.004, 192.0, 0.0, 0.0, 0.0, 0.0, 0.0, 0.0, 0.0, 0.0, 0.0, 1.6953714666205316E9, 0.0, 2023-09-22 10:31:06.620
92.0, 8944.698744380325, 187500.0, -187500.02235174447, -187500.02235174447, 187500.0, -187500.02235174447, -187500.02235174447, 187500.0, 0.044, -0.006, 1.004, 192.0, 0.0, 0.0, 0.0, 0.0, 0.0, 0.0, 0.0, 0.0, 0.0, 1.695371466620617E9, 0.0, 2023-09-22 10:31:06.620
93.0, 7840.1649403768715, 187500.0, -187500.02235174447, -187500.02235174447, 187500.0, -187500.02235174447, -187500.02235174447, 187500.0, 0.044, -0.006, 1.004, 192.0, 0.0, 0.0, 0.0, 0.0, 0.0, 0.0, 0.0, 0.0, 0.0, 1.6953714666207392E9, 0.0, 2023-09-22 10:31:06.620
94.0, 4848.272186311744, 187500.0, -187500.02235174447, -187500.02235174447, 187500.0, -187500.02235174447, -187500.02235174447, 187500.0, 0.044, -0.006, 1.004, 192.0, 0.0, 0.0, 0.0, 0.0, 0.0, 0.0, 0.0, 0.0, 0.0, 1.6953714666208265E9, 0.0, 2023-09-22 10:31:06.620
95.0, 2307.571745821446, 187500.0, -187500.02235174447, -187500.02235174447, 187500.0, -187500.02235174447, -187500.02235174447, 187500.0, 0.044, -0.006, 1.004, 192.0, 0.0, 0.0, 0.0, 0.0, 0.0, 0.0, 0.0, 0.0, 0.0, 1.6953714666209059E9, 0.0, 2023-09-22 10:31:06.620
96.0, 382.88538251941, 187500.0, -187500.02235174447, -187500.02235174447, 187500.0, -187500.02235174447, -187500.02235174447, 187500.0, 0.044, -0.006, 1.004, 192.0, 0.0, 0.0, 0.0, 0.0, 0.0, 0.0, 0.0, 0.0, 0.0, 1.695371466620976E9, 0.0, 2023-09-22 10:31:06.620
97.0, 1395.352351111454, 187500.0, -187500.02235174447, -187500.02235174447, 187500.0, -187500.02235174447, -187500.02235174447, 187500.0, 0.044, -0.006, 1.004, 192.0, 0.0, 0.0, 0.0, 0.0, 0.0, 0.0, 0.0, 0.0, 0.0, 1.695371466621039E9, 0.0, 2023-09-22 10:31:06.621
98.0, 4424.505463183577, 187500.0, -187500.02235174447, -187500.02235174447, 187500.0, -187500.02235174447, -187500.02235174447, 187500.0, 0.044, -0.006, 1.004, 192.0, 0.0, 0.0, 0.0, 0.0, 0.0, 0.0, 0.0, 0.0, 0.0, 1.6953714666210916E9, 0.0, 2023-09-22 10:31:06.621
99.0, 7046.029811624267, 187500.0, -187500.02235174447, -187500.02235174447, 187500.0, -187500.02235174447, -187500.02235174447, 187500.0, 0.04, -0.006, 1.004, 192.0, 1.0, 64.0, 255.0, 208.0, 31.0, 96.0, 0.0, 0.0, 0.0, 1.6953714666211436E9, 0.0, 2023-09-22 10:31:06.621
100.0, 8963.608320189514, 187500.0, -187500.02235174447, -187500.02235174447, 187500.0, -187500.02235174447, -187500.02235174447, 187500.0, 0.04, -0.006, 1.004, 192.0, 0.0, 0.0, 0.0, 0.0, 0.0, 0.0, 0.0, 0.0, 0.0, 1.6953714666211896E9, 0.0, 2023-09-22 10:31:06.621
101.0, 7889.450536900823, 187500.0, -187500.02235174447, -187500.02235174447, 187500.0, -187500.02235174447, -187500.02235174447, 187500.0, 0.04, -0.006, 1.004, 192.0, 0.0, 0.0, 0.0, 0.0, 0.0, 0.0, 0.0, 0.0, 0.0, 1.6953714666212387E9, 0.0, 2023-09-22 10:31:06.621
102.0, 4854.553026503686, 187500.0, -187500.02235174447, -187500.02235174447, 187500.0, -187500.02235174447, -187500.02235174447, 187500.0, 0.04, -0.006, 1.004, 192.0, 0.0, 0.0, 0.0, 0.0, 0.0, 0.0, 0.0, 0.0, 0.0, 1.6953714666212933E9, 0.0, 2023-09-22 10:31:06.621
103.0, 2277.240428595594, 187500.0, -187500.02235174447, -187500.02235174447, 187500.0, -187500.02235174447, -187500.02235174447, 187500.0, 0.04, -0.006, 1.004, 192.0, 0.0, 0.0, 0.0, 0.0, 0.0, 0.0, 0.0, 0.0, 0.0, 1.695371466621356E9, 0.0, 2023-09-22 10:31:06.621
104.0, 406.86880431995445, 187500.0, -187500.02235174447, -187500.02235174447, 187500.0, -187500.02235174447, -187500.02235174447, 187500.0, 0.04, -0.006, 1.004, 192.0, 0.0, 0.0, 0.0, 0.0, 0.0, 0.0, 0.0, 0.0, 0.0, 1.6953714666214285E9, 0.0, 2023-09-22 10:31:06.621
105.0, 1479.707834685783, 187500.0, -187500.02235174447, -187500.02235174447, 187500.0, -187500.02235174447, -187500.02235174447, 187500.0, 0.04, -0.006, 1.004, 192.0, 0.0, 0.0, 0.0, 0.0, 0.0, 0.0, 0.0, 0.0, 0.0, 1.6953714670935545E9, 0.0, 2023-09-22 10:31:07.093
106.0, 4471.555885261999, 187500.0, -187500.02235174447, -187500.02235174447, 187500.0, -187500.02235174447, -187500.02235174447, 187500.0, 0.04, -0.006, 1.004, 192.0, 0.0, 0.0, 0.0, 0.0, 0.0, 0.0, 0.0, 0.0, 0.0, 1.6953714670938728E9, 0.0, 2023-09-22 10:31:07.093
107.0, 7023.1416253020325, 187500.0, -187500.02235174447, -187500.02235174447, 187500.0, -187500.02235174447, -187500.02235174447, 187500.0, 0.04, -0.006, 1.004, 192.0, 0.0, 0.0, 0.0, 0.0, 0.0, 0.0, 0.0, 0.0, 0.0, 1.6953714670939512E9, 0.0, 2023-09-22 10:31:07.093
108.0, 8953.281814251162, 187500.0, -187500.02235174447, -187500.02235174447, 187500.0, -187500.02235174447, -187500.02235174447, 187500.0, 0.04, -0.006, 1.004, 192.0, 0.0, 0.0, 0.0, 0.0, 0.0, 0.0, 0.0, 0.0, 0.0, 1.6953714670939972E9, 0.0, 2023-09-22 10:31:07.093
109.0, 7864.12601043296, 187500.0, -187500.02235174447, -187500.02235174447, 187500.0, -187500.02235174447, -187500.02235174447, 187500.0, 0.038, -0.006, 0.998, 192.0, 1.0, 48.0, 255.0, 208.0, 31.0, 48.0, 0.0, 0.0, 0.0, 1.695371467094047E9, 0.0, 2023-09-22 10:31:07.094
110.0, 4845.925253143937, 187500.0, -187500.02235174447, -187500.02235174447, 187500.0, -187500.02235174447, -187500.02235174447, 187500.0, 0.038, -0.006, 0.998, 192.0, 0.0, 0.0, 0.0, 0.0, 0.0, 0.0, 0.0, 0.0, 0.0, 1.695371467094098E9, 0.0, 2023-09-22 10:31:07.094
111.0, 2293.601905536879, 187500.0, -187500.02235174447, -187500.02235174447, 187500.0, -187500.02235174447, -187500.02235174447, 187500.0, 0.038, -0.006, 0.998, 192.0, 0.0, 0.0, 0.0, 0.0, 0.0, 0.0, 0.0, 0.0, 0.0, 1.6953714670941453E9, 0.0, 2023-09-22 10:31:07.094
112.0, 392.3848739129155, 187500.0, -187500.02235174447, -187500.02235174447, 187500.0, -187500.02235174447, -187500.02235174447, 187500.0, 0.038, -0.006, 0.998, 192.0, 0.0, 0.0, 0.0, 0.0, 0.0, 0.0, 0.0, 0.0, 0.0, 1.6953714670942185E9, 0.0, 2023-09-22 10:31:07.094
113.0, 1433.484427152208, 187500.0, -187500.02235174447, -187500.02235174447, 187500.0, -187500.02235174447, -187500.02235174447, 187500.0, 0.038, -0.006, 0.998, 192.0, 0.0, 0.0, 0.0, 0.0, 0.0, 0.0, 0.0, 0.0, 0.0, 1.6953714670944524E9, 0.0, 2023-09-22 10:31:07.094
114.0, 4450.254672796092, 187500.0, -187500.02235174447, -187500.02235174447, 187500.0, -187500.02235174447, -187500.02235174447, 187500.0, 0.038, -0.006, 0.998, 192.0, 0.0, 0.0, 0.0, 0.0, 0.0, 0.0, 0.0, 0.0, 0.0, 1.6953714670945077E9, 0.0, 2023-09-22 10:31:07.094
115.0, 7033.043448095733, 187500.0, -187500.02235174447, -187500.02235174447, 187500.0, -187500.02235174447, -187500.02235174447, 187500.0, 0.038, -0.006, 0.998, 192.0, 0.0, 0.0, 0.0, 0.0, 0.0, 0.0, 0.0, 0.0, 0.0, 1.6953714670945537E9, 0.0, 2023-09-22 10:31:07.094
116.0, 8963.988299845256, 187500.0, -187500.02235174447, -187500.02235174447, 187500.0, -187500.02235174447, -187500.02235174447, 187500.0, 0.038, -0.006, 0.998, 192.0, 0.0, 0.0, 0.0, 0.0, 0.0, 0.0, 0.0, 0.0, 0.0, 1.695371467094605E9, 0.0, 2023-09-22 10:31:07.094
117.0, 7874.385461137947, 187500.0, -187500.02235174447, -187500.02235174447, 187500.0, -187500.02235174447, -187500.02235174447, 187500.0, 0.038, -0.006, 0.998, 192.0, 0.0, 0.0, 0.0, 0.0, 0.0, 0.0, 0.0, 0.0, 0.0, 1.695371467094654E9, 0.0, 2023-09-22 10:31:07.094
118.0, 4842.125456586535, 187500.0, -187500.02235174447, -187500.02235174447, 187500.0, -187500.02235174447, -187500.02235174447, 187500.0, 0.038, -0.006, 0.998, 192.0, 0.0, 0.0, 0.0, 0.0, 0.0, 0.0, 0.0, 0.0, 0.0, 1.6953714670946949E9, 0.0, 2023-09-22 10:31:07.094
119.0, 2303.526080075035, 187500.0, -187500.02235174447, -187500.02235174447, 187500.0, -187500.02235174447, -187500.02235174447, 187500.0, 0.04, -0.006, 1.006, 192.0, 1.0, 64.0, 255.0, 208.0, 31.0, 112.0, 0.0, 0.0, 0.0, 1.695371467094751E9, 0.0, 2023-09-22 10:31:07.094
120.0, 404.87949906343215, 187500.0, -187500.02235174447, -187500.02235174447, 187500.0, -187500.02235174447, -187500.02235174447, 187500.0, 0.04, -0.006, 1.006, 192.0, 0.0, 0.0, 0.0, 0.0, 0.0, 0.0, 0.0, 0.0, 0.0, 1.6953714670948024E9, 0.0, 2023-09-22 10:31:07.094
121.0, 1453.221017506244, 187500.0, -187500.02235174447, -187500.02235174447, 187500.0, -187500.02235174447, -187500.02235174447, 187500.0, 0.04, -0.006, 1.006, 192.0, 0.0, 0.0, 0.0, 0.0, 0.0, 0.0, 0.0, 0.0, 0.0, 1.6953714670950944E9, 0.0, 2023-09-22 10:31:07.095
122.0, 4465.096231114416, 187500.0, -187500.02235174447, -187500.02235174447, 187500.0, -187500.02235174447, -187500.02235174447, 187500.0, 0.04, -0.006, 1.006, 192.0, 0.0, 0.0, 0.0, 0.0, 0.0, 0.0, 0.0, 0.0, 0.0, 1.695371467095152E9, 0.0, 2023-09-22 10:31:07.095
123.0, 7050.053125626222, 187500.0, -187500.02235174447, -187500.02235174447, 187500.0, -187500.02235174447, -187500.02235174447, 187500.0, 0.04, -0.006, 1.006, 192.0, 0.0, 0.0, 0.0, 0.0, 0.0, 0.0, 0.0, 0.0, 0.0, 1.695371467095196E9, 0.0, 2023-09-22 10:31:07.095
124.0, 8963.362451000507, 187500.0, -187500.02235174447, -187500.02235174447, 187500.0, -187500.02235174447, -187500.02235174447, 187500.0, 0.04, -0.006, 1.006, 192.0, 0.0, 0.0, 0.0, 0.0, 0.0, 0.0, 0.0, 0.0, 0.0, 1.6953714670952458E9, 0.0, 2023-09-22 10:31:07.095
125.0, 7897.072481760083, 187500.0, -187500.02235174447, -187500.02235174447, 187500.0, -187500.02235174447, -187500.02235174447, 187500.0, 0.04, -0.006, 1.006, 192.0, 0.0, 0.0, 0.0, 0.0, 0.0, 0.0, 0.0, 0.0, 0.0, 1.695371467095291E9, 0.0, 2023-09-22 10:31:07.095
126.0, 4884.102032673602, 187500.0, -187500.02235174447, -187500.02235174447, 187500.0, -187500.02235174447, -187500.02235174447, 187500.0, 0.04, -0.006, 1.006, 192.0, 0.0, 0.0, 0.0, 0.0, 0.0, 0.0, 0.0, 0.0, 0.0, 1.695371467095334E9, 0.0, 2023-09-22 10:31:07.095
127.0, 2322.7038768176885, 187500.0, -187500.02235174447, -187500.02235174447, 187500.0, -187500.02235174447, -187500.02235174447, 187500.0, 0.04, -0.006, 1.006, 192.0, 0.0, 0.0, 0.0, 0.0, 0.0, 0.0, 0.0, 0.0, 0.0, 1.6953714670953784E9, 0.0, 2023-09-22 10:31:07.095
128.0, 402.6443246179014, 187500.0, -187500.02235174447, -187500.02235174447, 187500.0, -187500.02235174447, -187500.02235174447, 187500.0, 0.04, -0.006, 1.006, 192.0, 0.0, 0.0, 0.0, 0.0, 0.0, 0.0, 0.0, 0.0, 0.0, 1.6953714670954196E9, 0.0, 2023-09-22 10:31:07.095
129.0, 1448.5495029150848, 187500.0, -187500.02235174447, -187500.02235174447, 187500.0, -187500.02235174447, -187500.02235174447, 187500.0, 0.042, -0.004, 1.006, 192.0, 1.0, 80.0, 255.0, 224.0, 31.0, 112.0, 0.0, 0.0, 0.0, 1.6953714670954576E9, 0.0, 2023-09-22 10:31:07.095
130.0, 4492.343007605435, 187500.0, -187500.02235174447, -187500.02235174447, 187500.0, -187500.02235174447, -187500.02235174447, 187500.0, 0.042, -0.004, 1.006, 192.0, 0.0, 0.0, 0.0, 0.0, 0.0, 0.0, 0.0, 0.0, 0.0, 1.6953714670954995E9, 0.0, 2023-09-22 10:31:07.095
131.0, 7068.202742123931, 187500.0, -187500.02235174447, -187500.02235174447, 187500.0, -187500.02235174447, -187500.02235174447, 187500.0, 0.042, -0.004, 1.006, 192.0, 0.0, 0.0, 0.0, 0.0, 0.0, 0.0, 0.0, 0.0, 0.0, 1.6953714670955367E9, 0.0, 2023-09-22 10:31:07.095
132.0, 8955.762857885702, 187500.0, -187500.02235174447, -187500.02235174447, 187500.0, -187500.02235174447, -187500.02235174447, 187500.0, 0.042, -0.004, 1.006, 192.0, 0.0, 0.0, 0.0, 0.0, 0.0, 0.0, 0.0, 0.0, 0.0, 1.695371467095576E9, 0.0, 2023-09-22 10:31:07.095
133.0, 7883.147344964426, 187500.0, -187500.02235174447, -187500.02235174447, 187500.0, -187500.02235174447, -187500.02235174447, 187500.0, 0.042, -0.004, 1.006, 192.0, 0.0, 0.0, 0.0, 0.0, 0.0, 0.0, 0.0, 0.0, 0.0, 1.695371467095631E9, 0.0, 2023-09-22 10:31:07.095
134.0, 4861.6832329849285, 187500.0, -187500.02235174447, -187500.02235174447, 187500.0, -187500.02235174447, -187500.02235174447, 187500.0, 0.042, -0.004, 1.006, 192.0, 0.0, 0.0, 0.0, 0.0, 0.0, 0.0, 0.0, 0.0, 0.0, 1.6953714670956788E9, 0.0, 2023-09-22 10:31:07.095
135.0, 2310.8351005119207, 187500.0, -187500.02235174447, -187500.02235174447, 187500.0, -187500.02235174447, -187500.02235174447, 187500.0, 0.042, -0.004, 1.006, 192.0, 0.0, 0.0, 0.0, 0.0, 0.0, 0.0, 0.0, 0.0, 0.0, 1.6953714670957212E9, 0.0, 2023-09-22 10:31:07.095
136.0, 388.8309465445217, 187500.0, -187500.02235174447, -187500.02235174447, 187500.0, -187500.02235174447, -187500.02235174447, 187500.0, 0.042, -0.004, 1.006, 192.0, 0.0, 0.0, 0.0, 0.0, 0.0, 0.0, 0.0, 0.0, 0.0, 1.6953714670959263E9, 0.0, 2023-09-22 10:31:07.095
137.0, 1432.9256335408252, 187500.0, -187500.02235174447, -187500.02235174447, 187500.0, -187500.02235174447, -187500.02235174447, 187500.0, 0.042, -0.004, 1.006, 192.0, 0.0, 0.0, 0.0, 0.0, 0.0, 0.0, 0.0, 0.0, 0.0, 1.6953714670959756E9, 0.0, 2023-09-22 10:31:07.095
138.0, 4475.400385308312, 187500.0, -187500.02235174447, -187500.02235174447, 187500.0, -187500.02235174447, -187500.02235174447, 187500.0, 0.042, -0.004, 1.006, 192.0, 0.0, 0.0, 0.0, 0.0, 0.0, 0.0, 0.0, 0.0, 0.0, 1.69537146709602E9, 0.0, 2023-09-22 10:31:07.096
139.0, 7043.3923057785405, 187500.0, -187500.02235174447, -187500.02235174447, 187500.0, -187500.02235174447, -187500.02235174447, 187500.0, 0.04, -0.01, 1.004, 192.0, 1.0, 64.0, 255.0, 176.0, 31.0, 96.0, 0.0, 0.0, 0.0, 1.6953714670960672E9, 0.0, 2023-09-22 10:31:07.096
140.0, 8965.15059055693, 187500.0, -187500.02235174447, -187500.02235174447, 187500.0, -187500.02235174447, -187500.02235174447, 187500.0, 0.04, -0.01, 1.004, 192.0, 0.0, 0.0, 0.0, 0.0, 0.0, 0.0, 0.0, 0.0, 0.0, 1.6953714670961127E9, 0.0, 2023-09-22 10:31:07.096
141.0, 7867.0540889566055, 187500.0, -187500.02235174447, -187500.02235174447, 187500.0, -187500.02235174447, -187500.02235174447, 187500.0, 0.04, -0.01, 1.004, 192.0, 0.0, 0.0, 0.0, 0.0, 0.0, 0.0, 0.0, 0.0, 0.0, 1.6953714670961561E9, 0.0, 2023-09-22 10:31:07.096
142.0, 4884.616122796074, 187500.0, -187500.02235174447, -187500.02235174447, 187500.0, -187500.02235174447, -187500.02235174447, 187500.0, 0.04, -0.01, 1.004, 192.0, 0.0, 0.0, 0.0, 0.0, 0.0, 0.0, 0.0, 0.0, 0.0, 1.6953714670962017E9, 0.0, 2023-09-22 10:31:07.096
143.0, 2346.173208495761, 187500.0, -187500.02235174447, -187500.02235174447, 187500.0, -187500.02235174447, -187500.02235174447, 187500.0, 0.04, -0.01, 1.004, 192.0, 0.0, 0.0, 0.0, 0.0, 0.0, 0.0, 0.0, 0.0, 0.0, 1.695371467096256E9, 0.0, 2023-09-22 10:31:07.096
144.0, 443.0339268486413, 187500.0, -187500.02235174447, -187500.02235174447, 187500.0, -187500.02235174447, -187500.02235174447, 187500.0, 0.04, -0.01, 1.004, 192.0, 0.0, 0.0, 0.0, 0.0, 0.0, 0.0, 0.0, 0.0, 0.0, 1.6953714670962987E9, 0.0, 2023-09-22 10:31:07.096
145.0, 1498.639762239428, 187500.0, -187500.02235174447, -187500.02235174447, 187500.0, -187500.02235174447, -187500.02235174447, 187500.0, 0.04, -0.01, 1.004, 192.0, 0.0, 0.0, 0.0, 0.0, 0.0, 0.0, 0.0, 0.0, 0.0, 1.695371467096341E9, 0.0, 2023-09-22 10:31:07.096
146.0, 4488.632618025854, 187500.0, -187500.02235174447, -187500.02235174447, 187500.0, -187500.02235174447, -187500.02235174447, 187500.0, 0.04, -0.01, 1.004, 192.0, 0.0, 0.0, 0.0, 0.0, 0.0, 0.0, 0.0, 0.0, 0.0, 1.6953714670965521E9, 0.0, 2023-09-22 10:31:07.096
147.0, 7055.551654762227, 187500.0, -187500.02235174447, -187500.02235174447, 187500.0, -187500.02235174447, -187500.02235174447, 187500.0, 0.04, -0.01, 1.004, 192.0, 0.0, 0.0, 0.0, 0.0, 0.0, 0.0, 0.0, 0.0, 0.0, 1.6953714670965924E9, 0.0, 2023-09-22 10:31:07.096
148.0, 8960.00968933221, 187500.0, -187500.02235174447, -187500.02235174447, 187500.0, -187500.02235174447, -187500.02235174447, 187500.0, 0.04, -0.01, 1.004, 192.0, 0.0, 0.0, 0.0, 0.0, 0.0, 0.0, 0.0, 0.0, 0.0, 1.695371467096634E9, 0.0, 2023-09-22 10:31:07.096
149.0, 7877.022966983673, 187500.0, -187500.02235174447, -187500.02235174447, 187500.0, -187500.02235174447, -187500.02235174447, 187500.0, 0.036000000000000004, -0.008, 1.01, 192.0, 1.0, 32.0, 255.0, 192.0, 31.0, 144.0, 0.0, 0.0, 0.0, 1.6953714670966752E9, 0.0, 2023-09-22 10:31:07.096
150.0, 4866.15358187599, 187500.0, -187500.02235174447, -187500.02235174447, 187500.0, -187500.02235174447, -187500.02235174447, 187500.0, 0.036000000000000004, -0.008, 1.01, 192.0, 0.0, 0.0, 0.0, 0.0, 0.0, 0.0, 0.0, 0.0, 0.0, 1.695371467096719E9, 0.0, 2023-09-22 10:31:07.096
151.0, 2309.851623755887, 187500.0, -187500.02235174447, -187500.02235174447, 187500.0, -187500.02235174447, -187500.02235174447, 187500.0, 0.036000000000000004, -0.008, 1.01, 192.0, 0.0, 0.0, 0.0, 0.0, 0.0, 0.0, 0.0, 0.0, 0.0, 1.6953714670969484E9, 0.0, 2023-09-22 10:31:07.096
152.0, 378.72795805072286, 187500.0, -187500.02235174447, -187500.02235174447, 187500.0, -187500.02235174447, -187500.02235174447, 187500.0, 0.036000000000000004, -0.008, 1.01, 192.0, 0.0, 0.0, 0.0, 0.0, 0.0, 0.0, 0.0, 0.0, 0.0, 1.6953714670969942E9, 0.0, 2023-09-22 10:31:07.096
153.0, 1433.4620754077525, 187500.0, -187500.02235174447, -187500.02235174447, 187500.0, -187500.02235174447, -187500.02235174447, 187500.0, 0.036000000000000004, -0.008, 1.01, 192.0, 0.0, 0.0, 0.0, 0.0, 0.0, 0.0, 0.0, 0.0, 0.0, 1.6953714670970361E9, 0.0, 2023-09-22 10:31:07.097
154.0, 4465.297396814513, 187500.0, -187500.02235174447, -187500.02235174447, 187500.0, -187500.02235174447, -187500.02235174447, 187500.0, 0.036000000000000004, -0.008, 1.01, 192.0, 0.0, 0.0, 0.0, 0.0, 0.0, 0.0, 0.0, 0.0, 0.0, 1.695371467097076E9, 0.0, 2023-09-22 10:31:07.097
155.0, 7043.034677867256, 187500.0, -187500.02235174447, -187500.02235174447, 187500.0, -187500.02235174447, -187500.02235174447, 187500.0, 0.036000000000000004, -0.008, 1.01, 192.0, 0.0, 0.0, 0.0, 0.0, 0.0, 0.0, 0.0, 0.0, 0.0, 1.6953714670971277E9, 0.0, 2023-09-22 10:31:07.097
156.0, 8959.093267809543, 187500.0, -187500.02235174447, -187500.02235174447, 187500.0, -187500.02235174447, -187500.02235174447, 187500.0, 0.036000000000000004, -0.008, 1.01, 192.0, 0.0, 0.0, 0.0, 0.0, 0.0, 0.0, 0.0, 0.0, 0.0, 1.695371467097175E9, 0.0, 2023-09-22 10:31:07.097
157.0, 7881.3145019190915, 187500.0, -187500.02235174447, -187500.02235174447, 187500.0, -187500.02235174447, -187500.02235174447, 187500.0, 0.036000000000000004, -0.008, 1.01, 192.0, 0.0, 0.0, 0.0, 0.0, 0.0, 0.0, 0.0, 0.0, 0.0, 1.6953714670972283E9, 0.0, 2023-09-22 10:31:07.097
158.0, 4852.273148569244, 187500.0, -187500.02235174447, -187500.02235174447, 187500.0, -187500.02235174447, -187500.02235174447, 187500.0, 0.036000000000000004, -0.008, 1.01, 192.0, 0.0, 0.0, 0.0, 0.0, 0.0, 0.0, 0.0, 0.0, 0.0, 1.6953714670972724E9, 0.0, 2023-09-22 10:31:07.097
159.0, 2312.042094712507, 187500.0, -187500.02235174447, -187500.02235174447, 187500.0, -187500.02235174447, -187500.02235174447, 187500.0, 0.038, 0.0, 1.01, 192.0, 1.0, 48.0, 0.0, 0.0, 31.0, 144.0, 0.0, 0.0, 0.0, 1.6953714670973125E9, 0.0, 2023-09-22 10:31:07.097
160.0, 407.4275979313371, 187500.0, -187500.02235174447, -187500.02235174447, 187500.0, -187500.02235174447, -187500.02235174447, 187500.0, 0.038, 0.0, 1.01, 192.0, 0.0, 0.0, 0.0, 0.0, 0.0, 0.0, 0.0, 0.0, 0.0, 1.6953714670973563E9, 0.0, 2023-09-22 10:31:07.097
161.0, 1464.061613567068, 187500.0, -187500.02235174447, -187500.02235174447, 187500.0, -187500.02235174447, -187500.02235174447, 187500.0, 0.038, 0.0, 1.01, 192.0, 0.0, 0.0, 0.0, 0.0, 0.0, 0.0, 0.0, 0.0, 0.0, 1.6953714670973992E9, 0.0, 2023-09-22 10:31:07.097
162.0, 4477.188524864737, 187500.0, -187500.02235174447, -187500.02235174447, 187500.0, -187500.02235174447, -187500.02235174447, 187500.0, 0.038, 0.0, 1.01, 192.0, 0.0, 0.0, 0.0, 0.0, 0.0, 0.0, 0.0, 0.0, 0.0, 1.6953714670974452E9, 0.0, 2023-09-22 10:31:07.097
163.0, 7061.676032742982, 187500.0, -187500.02235174447, -187500.02235174447, 187500.0, -187500.02235174447, -187500.02235174447, 187500.0, 0.038, 0.0, 1.01, 192.0, 0.0, 0.0, 0.0, 0.0, 0.0, 0.0, 0.0, 0.0, 0.0, 1.6953714670974915E9, 0.0, 2023-09-22 10:31:07.097
164.0, 8974.851247650535, 187500.0, -187500.02235174447, -187500.02235174447, 187500.0, -187500.02235174447, -187500.02235174447, 187500.0, 0.038, 0.0, 1.01, 192.0, 0.0, 0.0, 0.0, 0.0, 0.0, 0.0, 0.0, 0.0, 0.0, 1.695371467097546E9, 0.0, 2023-09-22 10:31:07.097
165.0, 7892.423318913379, 187500.0, -187500.02235174447, -187500.02235174447, 187500.0, -187500.02235174447, -187500.02235174447, 187500.0, 0.038, 0.0, 1.01, 192.0, 0.0, 0.0, 0.0, 0.0, 0.0, 0.0, 0.0, 0.0, 0.0, 1.6953714670975907E9, 0.0, 2023-09-22 10:31:07.097
166.0, 4882.313893117177, 187500.0, -187500.02235174447, -187500.02235174447, 187500.0, -187500.02235174447, -187500.02235174447, 187500.0, 0.038, 0.0, 1.01, 192.0, 0.0, 0.0, 0.0, 0.0, 0.0, 0.0, 0.0, 0.0, 0.0, 1.6953714670977285E9, 0.0, 2023-09-22 10:31:07.097
167.0, 2291.7467107470884, 187500.0, -187500.02235174447, -187500.02235174447, 187500.0, -187500.02235174447, -187500.02235174447, 187500.0, 0.038, 0.0, 1.01, 192.0, 0.0, 0.0, 0.0, 0.0, 0.0, 0.0, 0.0, 0.0, 0.0, 1.695371467097778E9, 0.0, 2023-09-22 10:31:07.097
168.0, 368.69202479029, 187500.0, -187500.02235174447, -187500.02235174447, 187500.0, -187500.02235174447, -187500.02235174447, 187500.0, 0.038, 0.0, 1.01, 192.0, 0.0, 0.0, 0.0, 0.0, 0.0, 0.0, 0.0, 0.0, 0.0, 1.6953714670978231E9, 0.0, 2023-09-22 10:31:07.097
169.0, 1453.153962272878, 187500.0, -187500.02235174447, -187500.02235174447, 187500.0, -187500.02235174447, -187500.02235174447, 187500.0, 0.038, -0.006, 1.008, 192.0, 1.0, 48.0, 255.0, 208.0, 31.0, 128.0, 0.0, 0.0, 0.0, 1.6953714670978673E9, 0.0, 2023-09-22 10:31:07.097
170.0, 4473.187562607237, 187500.0, -187500.02235174447, -187500.02235174447, 187500.0, -187500.02235174447, -187500.02235174447, 187500.0, 0.038, -0.006, 1.008, 192.0, 0.0, 0.0, 0.0, 0.0, 0.0, 0.0, 0.0, 0.0, 0.0, 1.695371467097918E9, 0.0, 2023-09-22 10:31:07.097
171.0, 7041.827683666669, 187500.0, -187500.02235174447, -187500.02235174447, 187500.0, -187500.02235174447, -187500.02235174447, 187500.0, 0.038, -0.006, 1.008, 192.0, 0.0, 0.0, 0.0, 0.0, 0.0, 0.0, 0.0, 0.0, 0.0, 1.6953714670979624E9, 0.0, 2023-09-22 10:31:07.097
172.0, 8935.825101831568, 187500.0, -187500.02235174447, -187500.02235174447, 187500.0, -187500.02235174447, -187500.02235174447, 187500.0, 0.038, -0.006, 1.008, 192.0, 0.0, 0.0, 0.0, 0.0, 0.0, 0.0, 0.0, 0.0, 0.0, 1.6953714670980115E9, 0.0, 2023-09-22 10:31:07.098
173.0, 7827.69266697081, 187500.0, -187500.02235174447, -187500.02235174447, 187500.0, -187500.02235174447, -187500.02235174447, 187500.0, 0.038, -0.006, 1.008, 192.0, 0.0, 0.0, 0.0, 0.0, 0.0, 0.0, 0.0, 0.0, 0.0, 1.6953714670980556E9, 0.0, 2023-09-22 10:31:07.098
174.0, 4831.418970992443, 187500.0, -187500.02235174447, -187500.02235174447, 187500.0, -187500.02235174447, -187500.02235174447, 187500.0, 0.038, -0.006, 1.008, 192.0, 0.0, 0.0, 0.0, 0.0, 0.0, 0.0, 0.0, 0.0, 0.0, 1.6953714670981007E9, 0.0, 2023-09-22 10:31:07.098
175.0, 2284.4823937991137, 187500.0, -187500.02235174447, -187500.02235174447, 187500.0, -187500.02235174447, -187500.02235174447, 187500.0, 0.038, -0.006, 1.008, 192.0, 0.0, 0.0, 0.0, 0.0, 0.0, 0.0, 0.0, 0.0, 0.0, 1.6953714670981443E9, 0.0, 2023-09-22 10:31:07.098
176.0, 384.1594319533625, 187500.0, -187500.02235174447, -187500.02235174447, 187500.0, -187500.02235174447, -187500.02235174447, 187500.0, 0.038, -0.006, 1.008, 192.0, 0.0, 0.0, 0.0, 0.0, 0.0, 0.0, 0.0, 0.0, 0.0, 1.69537146709819E9, 0.0, 2023-09-22 10:31:07.098
177.0, 1451.2987674830877, 187500.0, -187500.02235174447, -187500.02235174447, 187500.0, -187500.02235174447, -187500.02235174447, 187500.0, 0.038, -0.006, 1.008, 192.0, 0.0, 0.0, 0.0, 0.0, 0.0, 0.0, 0.0, 0.0, 0.0, 1.6953714670982456E9, 0.0, 2023-09-22 10:31:07.098
178.0, 4475.221571352669, 187500.0, -187500.02235174447, -187500.02235174447, 187500.0, -187500.02235174447, -187500.02235174447, 187500.0, 0.038, -0.006, 1.008, 192.0, 0.0, 0.0, 0.0, 0.0, 0.0, 0.0, 0.0, 0.0, 0.0, 1.6953714670982914E9, 0.0, 2023-09-22 10:31:07.098
179.0, 7035.949174874923, 187500.0, -187500.02235174447, -187500.02235174447, 187500.0, -187500.02235174447, -187500.02235174447, 187500.0, 0.038, -0.008, 1.008, 192.0, 1.0, 48.0, 255.0, 192.0, 31.0, 128.0, 0.0, 0.0, 0.0, 1.6953714670983849E9, 0.0, 2023-09-22 10:31:07.098
180.0, 8957.975680586778, 187500.0, -187500.02235174447, -187500.02235174447, 187500.0, -187500.02235174447, -187500.02235174447, 187500.0, 0.038, -0.008, 1.008, 192.0, 0.0, 0.0, 0.0, 0.0, 0.0, 0.0, 0.0, 0.0, 0.0, 1.695371467098436E9, 0.0, 2023-09-22 10:31:07.098
181.0, 7869.356318635502, 187500.0, -187500.02235174447, -187500.02235174447, 187500.0, -187500.02235174447, -187500.02235174447, 187500.0, 0.038, -0.008, 1.008, 192.0, 0.0, 0.0, 0.0, 0.0, 0.0, 0.0, 0.0, 0.0, 0.0, 1.695371467098542E9, 0.0, 2023-09-22 10:31:07.098
182.0, 4834.414104749454, 187500.0, -187500.02235174447, -187500.02235174447, 187500.0, -187500.02235174447, -187500.02235174447, 187500.0, 0.038, -0.008, 1.008, 192.0, 0.0, 0.0, 0.0, 0.0, 0.0, 0.0, 0.0, 0.0, 0.0, 1.6953714670985882E9, 0.0, 2023-09-22 10:31:07.098
183.0, 2280.8390594528987, 187500.0, -187500.02235174447, -187500.02235174447, 187500.0, -187500.02235174447, -187500.02235174447, 187500.0, 0.038, -0.008, 1.008, 192.0, 0.0, 0.0, 0.0, 0.0, 0.0, 0.0, 0.0, 0.0, 0.0, 1.6953714670986373E9, 0.0, 2023-09-22 10:31:07.098
184.0, 375.28578940460557, 187500.0, -187500.02235174447, -187500.02235174447, 187500.0, -187500.02235174447, -187500.02235174447, 187500.0, 0.038, -0.008, 1.008, 192.0, 0.0, 0.0, 0.0, 0.0, 0.0, 0.0, 0.0, 0.0, 0.0, 1.6953714670986786E9, 0.0, 2023-09-22 10:31:07.098
185.0, 1420.095732223479, 187500.0, -187500.02235174447, -187500.02235174447, 187500.0, -187500.02235174447, -187500.02235174447, 187500.0, 0.038, -0.008, 1.008, 192.0, 0.0, 0.0, 0.0, 0.0, 0.0, 0.0, 0.0, 0.0, 0.0, 1.6953714670987318E9, 0.0, 2023-09-22 10:31:07.098
186.0, 4472.539362018033, 187500.0, -187500.02235174447, -187500.02235174447, 187500.0, -187500.02235174447, -187500.02235174447, 187500.0, 0.038, -0.008, 1.008, 192.0, 0.0, 0.0, 0.0, 0.0, 0.0, 0.0, 0.0, 0.0, 0.0, 1.6953714670987806E9, 0.0, 2023-09-22 10:31:07.098
187.0, 7041.0453726107335, 187500.0, -187500.02235174447, -187500.02235174447, 187500.0, -187500.02235174447, -187500.02235174447, 187500.0, 0.038, -0.008, 1.008, 192.0, 0.0, 0.0, 0.0, 0.0, 0.0, 0.0, 0.0, 0.0, 0.0, 1.6953714670988264E9, 0.0, 2023-09-22 10:31:07.098
188.0, 8913.71922656527, 187500.0, -187500.02235174447, -187500.02235174447, 187500.0, -187500.02235174447, -187500.02235174447, 187500.0, 0.038, -0.008, 1.008, 192.0, 0.0, 0.0, 0.0, 0.0, 0.0, 0.0, 0.0, 0.0, 0.0, 1.6953714670988674E9, 0.0, 2023-09-22 10:31:07.098
189.0, 7875.078365216061, 187500.0, -187500.02235174447, -187500.02235174447, 187500.0, -187500.02235174447, -187500.02235174447, 187500.0, 0.04, -0.008, 1.012, 192.0, 1.0, 64.0, 255.0, 192.0, 31.0, 160.0, 0.0, 0.0, 0.0, 1.695371467098909E9, 0.0, 2023-09-22 10:31:07.098
190.0, 4911.549974864719, 187500.0, -187500.02235174447, -187500.02235174447, 187500.0, -187500.02235174447, -187500.02235174447, 187500.0, 0.04, -0.008, 1.012, 192.0, 0.0, 0.0, 0.0, 0.0, 0.0, 0.0, 0.0, 0.0, 0.0, 1.6953714670989559E9, 0.0, 2023-09-22 10:31:07.098
191.0, 2306.5882690654125, 187500.0, -187500.02235174447, -187500.02235174447, 187500.0, -187500.02235174447, -187500.02235174447, 187500.0, 0.04, -0.008, 1.012, 192.0, 0.0, 0.0, 0.0, 0.0, 0.0, 0.0, 0.0, 0.0, 0.0, 1.6953714670990007E9, 0.0, 2023-09-22 10:31:07.099
