%OpenBCI Raw EXG Data
%Number of channels = 8
%Sample Rate = 250 Hz
%Board = OpenBCI_GUI$BoardCytonSerial
Sample Index, EXG Channel 0, EXG Channel 1, EXG Channel 2, EXG Channel 3, EXG Channel 4, EXG Channel 5, EXG Channel 6, EXG Channel 7, Accel Channel 0, Accel Channel 1, Accel Channel 2, Other, Other, Other, Other, Other, Other, Other, Analog Channel 0, Analog Channel 1, Analog Channel 2, Timestamp, Other, Timestamp (Formatted)
0.0, 0.0, 0.0, 0.0, 0.0, 0.0, 0.0, 0.0, 0.0, 0.042, 0.08600000000000001, 0.994, 192.0, 1.0, 80.0, 2.0, 176.0, 31.0, 16.0, 0.0, 0.0, 0.0, 1.6953694136128695E9, 0.0, 2023-09-22 09:56:53.612
1.0, 3904.492128430859, 187500.0, 187500.0, 187500.0, 187500.0, 187500.0, 187500.0, 187500.0, 0.042, 0.08600000000000001, 0.994, 192.0, 0.0, 0.0, 0.0, 0.0, 0.0, 0.0, 0.0, 0.0, 0.0, 1.6953694140998843E9, 0.0, 2023-09-22 09:56:54.099
2.0, 3920.9653640944202, 187500.0, 187500.0, 187500.0, 187500.0, 187500.0, 187500.0, 187500.0, 0.042, 0.08600000000000001, 0.994, 192.0, 0.0, 0.0, 0.0, 0.0, 0.0, 0.0, 0.0, 0.0, 0.0, 1.6953694140999632E9, 0.0, 2023-09-22 09:56:54.099
3.0, 3929.235509542884, 187500.0, 187500.0, 187500.0, 187500.0, 187500.0, 187500.0, 187500.0, 0.042, 0.08600000000000001, 0.994, 192.0, 0.0, 0.0, 0.0, 0.0, 0.0, 0.0, 0.0, 0.0, 0.0, 1.695369414100071E9, 0.0, 2023-09-22 09:56:54.100
4.0, 3927.1567973085403, 187500.0, 187500.0, 187500.0, 187500.0, 187500.0, 187500.0, 187500.0, 0.042, 0.08600000000000001, 0.994, 192.0, 0.0, 0.0, 0.0, 0.0, 0.0, 0.0, 0.0, 0.0, 0.0, 1.6953694141001225E9, 0.0, 2023-09-22 09:56:54.100
5.0, 3892.712759102912, 187500.0, 187500.0, 187500.0, 187500.0, 187500.0, 187500.0, 187500.0, 0.042, 0.08600000000000001, 0.994, 192.0, 0.0, 0.0, 0.0, 0.0, 0.0, 0.0, 0.0, 0.0, 0.0, 1.6953694141001709E9, 0.0, 2023-09-22 09:56:54.100
6.0, 3873.803183293722, 187500.0, 187500.0, 187500.0, 187500.0, 187500.0, 187500.0, 187500.0, 0.042, 0.08600000000000001, 0.994, 192.0, 0.0, 0.0, 0.0, 0.0, 0.0, 0.0, 0.0, 0.0, 0.0, 1.6953694141002128E9, 0.0, 2023-09-22 09:56:54.100
7.0, 3864.5942645781356, 187500.0, 187500.0, 187500.0, 187500.0, 187500.0, 187500.0, 187500.0, 0.042, 0.08600000000000001, 0.994, 192.0, 0.0, 0.0, 0.0, 0.0, 0.0, 0.0, 0.0, 0.0, 0.0, 1.6953694141002564E9, 0.0, 2023-09-22 09:56:54.100
8.0, 3865.1754099339737, 187500.0, 187500.0, 187500.0, 187500.0, 187500.0, 187500.0, 187500.0, 0.044, 0.136, 0.988, 192.0, 1.0, 96.0, 4.0, 64.0, 30.0, 224.0, 0.0, 0.0, 0.0, 1.6953694141003032E9, 0.0, 2023-09-22 09:56:54.100
9.0, 3898.680674872479, 187500.0, 187500.0, 187500.0, 187500.0, 187500.0, 187500.0, 187500.0, 0.044, 0.136, 0.988, 192.0, 0.0, 0.0, 0.0, 0.0, 0.0, 0.0, 0.0, 0.0, 0.0, 1.695369414100351E9, 0.0, 2023-09-22 09:56:54.100
10.0, 3916.718532647912, 187500.0, 187500.0, 187500.0, 187500.0, 187500.0, 187500.0, 187500.0, 0.044, 0.136, 0.988, 192.0, 0.0, 0.0, 0.0, 0.0, 0.0, 0.0, 0.0, 0.0, 0.0, 1.6953694141003947E9, 0.0, 2023-09-22 09:56:54.100
11.0, 3925.0557333297415, 187500.0, 187500.0, 187500.0, 187500.0, 187500.0, 187500.0, 187500.0, 0.044, 0.136, 0.988, 192.0, 0.0, 0.0, 0.0, 0.0, 0.0, 0.0, 0.0, 0.0, 0.0, 1.6953694141004395E9, 0.0, 2023-09-22 09:56:54.100
12.0, 3923.647573429057, 187500.0, 187500.0, 187500.0, 187500.0, 187500.0, 187500.0, 187500.0, 0.044, 0.136, 0.988, 192.0, 0.0, 0.0, 0.0, 0.0, 0.0, 0.0, 0.0, 0.0, 0.0, 1.6953694141004848E9, 0.0, 2023-09-22 09:56:54.100
13.0, 3890.231715468373, 187500.0, 187500.0, 187500.0, 187500.0, 187500.0, 187500.0, 187500.0, 0.044, 0.136, 0.988, 192.0, 0.0, 0.0, 0.0, 0.0, 0.0, 0.0, 0.0, 0.0, 0.0, 1.6953694141005409E9, 0.0, 2023-09-22 09:56:54.100
14.0, 3871.836229781655, 187500.0, 187500.0, 187500.0, 187500.0, 187500.0, 187500.0, 187500.0, 0.044, 0.136, 0.988, 192.0, 0.0, 0.0, 0.0, 0.0, 0.0, 0.0, 0.0, 0.0, 0.0, 1.6953694141005797E9, 0.0, 2023-09-22 09:56:54.100
15.0, 3862.739069788345, 187500.0, 187500.0, 187500.0, 187500.0, 187500.0, 187500.0, 187500.0, 0.044, 0.136, 0.988, 192.0, 0.0, 0.0, 0.0, 0.0, 0.0, 0.0, 0.0, 0.0, 0.0, 1.6953694141006207E9, 0.0, 2023-09-22 09:56:54.100
16.0, 3863.1861046774516, 187500.0, 187500.0, 187500.0, 187500.0, 187500.0, 187500.0, 187500.0, 0.044, 0.136, 0.988, 192.0, 0.0, 0.0, 0.0, 0.0, 0.0, 0.0, 0.0, 0.0, 0.0, 1.695369414100963E9, 0.0, 2023-09-22 09:56:54.100
17.0, 3896.333741704672, 187500.0, 187500.0, 187500.0, 187500.0, 187500.0, 187500.0, 187500.0, 0.042, 0.16, 0.984, 192.0, 1.0, 80.0, 5.0, 0.0, 30.0, 192.0, 0.0, 0.0, 0.0, 1.6953694141010115E9, 0.0, 2023-09-22 09:56:54.101
18.0, 3914.975096580398, 187500.0, 187500.0, 187500.0, 187500.0, 187500.0, 187500.0, 187500.0, 0.042, 0.16, 0.984, 192.0, 0.0, 0.0, 0.0, 0.0, 0.0, 0.0, 0.0, 0.0, 0.0, 1.6953694141010566E9, 0.0, 2023-09-22 09:56:54.101
19.0, 3924.0946083181634, 187500.0, 187500.0, 187500.0, 187500.0, 187500.0, 187500.0, 187500.0, 0.042, 0.16, 0.984, 192.0, 0.0, 0.0, 0.0, 0.0, 0.0, 0.0, 0.0, 0.0, 0.0, 1.695369414101102E9, 0.0, 2023-09-22 09:56:54.101
20.0, 3922.5299862062916, 187500.0, 187500.0, 187500.0, 187500.0, 187500.0, 187500.0, 187500.0, 0.042, 0.16, 0.984, 192.0, 0.0, 0.0, 0.0, 0.0, 0.0, 0.0, 0.0, 0.0, 0.0, 1.6953694141011484E9, 0.0, 2023-09-22 09:56:54.101
21.0, 3888.510631145314, 187500.0, 187500.0, 187500.0, 187500.0, 187500.0, 187500.0, 187500.0, 0.042, 0.16, 0.984, 192.0, 0.0, 0.0, 0.0, 0.0, 0.0, 0.0, 0.0, 0.0, 0.0, 1.6953694141011908E9, 0.0, 2023-09-22 09:56:54.101
22.0, 3869.645758825035, 187500.0, 187500.0, 187500.0, 187500.0, 187500.0, 187500.0, 187500.0, 0.042, 0.16, 0.984, 192.0, 0.0, 0.0, 0.0, 0.0, 0.0, 0.0, 0.0, 0.0, 0.0, 1.695369414101231E9, 0.0, 2023-09-22 09:56:54.101
23.0, 3860.90622674301, 187500.0, 187500.0, 187500.0, 187500.0, 187500.0, 187500.0, 187500.0, 0.042, 0.16, 0.984, 192.0, 0.0, 0.0, 0.0, 0.0, 0.0, 0.0, 0.0, 0.0, 0.0, 1.695369414101303E9, 0.0, 2023-09-22 09:56:54.101
24.0, 3862.403793621516, 187500.0, 187500.0, 187500.0, 187500.0, 187500.0, 187500.0, 187500.0, 0.042, 0.16, 0.984, 192.0, 0.0, 0.0, 0.0, 0.0, 0.0, 0.0, 0.0, 0.0, 0.0, 1.6953694141013856E9, 0.0, 2023-09-22 09:56:54.101
25.0, 3895.8196515821996, 187500.0, 187500.0, 187500.0, 187500.0, 187500.0, 187500.0, 187500.0, 0.042, 0.16, 0.984, 192.0, 0.0, 0.0, 0.0, 0.0, 0.0, 0.0, 0.0, 0.0, 0.0, 1.6953694141014948E9, 0.0, 2023-09-22 09:56:54.101
26.0, 3913.6563436575348, 187500.0, 187500.0, 187500.0, 187500.0, 187500.0, 187500.0, 187500.0, 0.042, 0.16, 0.984, 192.0, 0.0, 0.0, 0.0, 0.0, 0.0, 0.0, 0.0, 0.0, 0.0, 1.6953694141015973E9, 0.0, 2023-09-22 09:56:54.101
27.0, 3922.552337950747, 187500.0, 187500.0, 187500.0, 187500.0, 187500.0, 187500.0, 187500.0, 0.044, 0.168, 0.984, 192.0, 1.0, 96.0, 5.0, 64.0, 30.0, 192.0, 0.0, 0.0, 0.0, 1.6953694141017008E9, 0.0, 2023-09-22 09:56:54.101
28.0, 3921.747675150356, 187500.0, 187500.0, 187500.0, 187500.0, 187500.0, 187500.0, 187500.0, 0.044, 0.168, 0.984, 192.0, 0.0, 0.0, 0.0, 0.0, 0.0, 0.0, 0.0, 0.0, 0.0, 1.695369414101775E9, 0.0, 2023-09-22 09:56:54.101
29.0, 3888.4435759119483, 187500.0, 187500.0, 187500.0, 187500.0, 187500.0, 187500.0, 187500.0, 0.044, 0.168, 0.984, 192.0, 0.0, 0.0, 0.0, 0.0, 0.0, 0.0, 0.0, 0.0, 0.0, 1.6953694141018205E9, 0.0, 2023-09-22 09:56:54.101
30.0, 3870.0480902252307, 187500.0, 187500.0, 187500.0, 187500.0, 187500.0, 187500.0, 187500.0, 0.044, 0.168, 0.984, 192.0, 0.0, 0.0, 0.0, 0.0, 0.0, 0.0, 0.0, 0.0, 0.0, 1.6953694141018727E9, 0.0, 2023-09-22 09:56:54.101
31.0, 3860.548598831725, 187500.0, 187500.0, 187500.0, 187500.0, 187500.0, 187500.0, 187500.0, 0.044, 0.168, 0.984, 192.0, 0.0, 0.0, 0.0, 0.0, 0.0, 0.0, 0.0, 0.0, 0.0, 1.6953694141024482E9, 0.0, 2023-09-22 09:56:54.102
32.0, 3861.554427332214, 187500.0, 187500.0, 187500.0, 187500.0, 187500.0, 187500.0, 187500.0, 0.044, 0.168, 0.984, 192.0, 0.0, 0.0, 0.0, 0.0, 0.0, 0.0, 0.0, 0.0, 0.0, 1.6953694141025052E9, 0.0, 2023-09-22 09:56:54.102
33.0, 3895.1714509929957, 187500.0, 187500.0, 187500.0, 187500.0, 187500.0, 187500.0, 187500.0, 0.044, 0.168, 0.984, 192.0, 0.0, 0.0, 0.0, 0.0, 0.0, 0.0, 0.0, 0.0, 0.0, 1.6953694141025999E9, 0.0, 2023-09-22 09:56:54.102
34.0, 3913.946916335454, 187500.0, 187500.0, 187500.0, 187500.0, 187500.0, 187500.0, 187500.0, 0.044, 0.168, 0.984, 192.0, 0.0, 0.0, 0.0, 0.0, 0.0, 0.0, 0.0, 0.0, 0.0, 1.695369414102678E9, 0.0, 2023-09-22 09:56:54.102
35.0, 3922.8205588842106, 187500.0, 187500.0, 187500.0, 187500.0, 187500.0, 187500.0, 187500.0, 0.044, 0.168, 0.984, 192.0, 0.0, 0.0, 0.0, 0.0, 0.0, 0.0, 0.0, 0.0, 0.0, 1.695369414102729E9, 0.0, 2023-09-22 09:56:54.102
36.0, 3920.9206606055095, 187500.0, 187500.0, 187500.0, 187500.0, 187500.0, 187500.0, 187500.0, 0.044, 0.168, 0.984, 192.0, 0.0, 0.0, 0.0, 0.0, 0.0, 0.0, 0.0, 0.0, 0.0, 1.695369414102796E9, 0.0, 2023-09-22 09:56:54.102
37.0, 3887.5048026448258, 187500.0, 187500.0, 187500.0, 187500.0, 187500.0, 187500.0, 187500.0, 0.036000000000000004, 0.17400000000000002, 0.982, 192.0, 1.0, 32.0, 5.0, 112.0, 30.0, 176.0, 0.0, 0.0, 0.0, 1.695369414102868E9, 0.0, 2023-09-22 09:56:54.102
38.0, 3869.936331502954, 187500.0, 187500.0, 187500.0, 187500.0, 187500.0, 187500.0, 187500.0, 0.036000000000000004, 0.17400000000000002, 0.982, 192.0, 0.0, 0.0, 0.0, 0.0, 0.0, 0.0, 0.0, 0.0, 0.0, 1.6953694141029181E9, 0.0, 2023-09-22 09:56:54.102
39.0, 3860.883874998555, 187500.0, 187500.0, 187500.0, 187500.0, 187500.0, 187500.0, 187500.0, 0.036000000000000004, 0.17400000000000002, 0.982, 192.0, 0.0, 0.0, 0.0, 0.0, 0.0, 0.0, 0.0, 0.0, 0.0, 1.6953694141029751E9, 0.0, 2023-09-22 09:56:54.102
40.0, 3861.777944776767, 187500.0, 187500.0, 187500.0, 187500.0, 187500.0, 187500.0, 187500.0, 0.036000000000000004, 0.17400000000000002, 0.982, 192.0, 0.0, 0.0, 0.0, 0.0, 0.0, 0.0, 0.0, 0.0, 0.0, 1.6953694141030304E9, 0.0, 2023-09-22 09:56:54.103
41.0, 3895.014988781809, 187500.0, 187500.0, 187500.0, 187500.0, 187500.0, 187500.0, 187500.0, 0.036000000000000004, 0.17400000000000002, 0.982, 192.0, 0.0, 0.0, 0.0, 0.0, 0.0, 0.0, 0.0, 0.0, 0.0, 1.695369414103082E9, 0.0, 2023-09-22 09:56:54.103
42.0, 3913.209308768429, 187500.0, 187500.0, 187500.0, 187500.0, 187500.0, 187500.0, 187500.0, 0.036000000000000004, 0.17400000000000002, 0.982, 192.0, 0.0, 0.0, 0.0, 0.0, 0.0, 0.0, 0.0, 0.0, 0.0, 1.695369414103128E9, 0.0, 2023-09-22 09:56:54.103
43.0, 3922.9323176064872, 187500.0, 187500.0, 187500.0, 187500.0, 187500.0, 187500.0, 187500.0, 0.036000000000000004, 0.17400000000000002, 0.982, 192.0, 0.0, 0.0, 0.0, 0.0, 0.0, 0.0, 0.0, 0.0, 0.0, 1.6953694141031716E9, 0.0, 2023-09-22 09:56:54.103
44.0, 3921.2782885167944, 187500.0, 187500.0, 187500.0, 187500.0, 187500.0, 187500.0, 187500.0, 0.036000000000000004, 0.17400000000000002, 0.982, 192.0, 0.0, 0.0, 0.0, 0.0, 0.0, 0.0, 0.0, 0.0, 0.0, 1.6953694141032343E9, 0.0, 2023-09-22 09:56:54.103
45.0, 3888.2200584673956, 187500.0, 187500.0, 187500.0, 187500.0, 187500.0, 187500.0, 187500.0, 0.036000000000000004, 0.17400000000000002, 0.982, 192.0, 0.0, 0.0, 0.0, 0.0, 0.0, 0.0, 0.0, 0.0, 0.0, 1.6953694141032932E9, 0.0, 2023-09-22 09:56:54.103
46.0, 3869.265779169295, 187500.0, 187500.0, 187500.0, 187500.0, 187500.0, 187500.0, 187500.0, 0.036000000000000004, 0.17400000000000002, 0.982, 192.0, 0.0, 0.0, 0.0, 0.0, 0.0, 0.0, 0.0, 0.0, 0.0, 1.6953694141033552E9, 0.0, 2023-09-22 09:56:54.103
47.0, 3860.2803778982616, 187500.0, 187500.0, 187500.0, 187500.0, 187500.0, 187500.0, 187500.0, 0.032, 0.184, 0.984, 192.0, 1.0, 0.0, 5.0, 192.0, 30.0, 192.0, 0.0, 0.0, 0.0, 1.695369414103646E9, 0.0, 2023-09-22 09:56:54.103
48.0, 3861.554427332214, 187500.0, 187500.0, 187500.0, 187500.0, 187500.0, 187500.0, 187500.0, 0.032, 0.184, 0.984, 192.0, 0.0, 0.0, 0.0, 0.0, 0.0, 0.0, 0.0, 0.0, 0.0, 1.6953694141037781E9, 0.0, 2023-09-22 09:56:54.103
49.0, 3895.596134137647, 187500.0, 187500.0, 187500.0, 187500.0, 187500.0, 187500.0, 187500.0, 0.032, 0.184, 0.984, 192.0, 0.0, 0.0, 0.0, 0.0, 0.0, 0.0, 0.0, 0.0, 0.0, 1.6953694141038754E9, 0.0, 2023-09-22 09:56:54.103
50.0, 3913.879861102088, 187500.0, 187500.0, 187500.0, 187500.0, 187500.0, 187500.0, 187500.0, 0.032, 0.184, 0.984, 192.0, 0.0, 0.0, 0.0, 0.0, 0.0, 0.0, 0.0, 0.0, 0.0, 1.6953694141039326E9, 0.0, 2023-09-22 09:56:54.103
51.0, 3921.7700268948115, 187500.0, 187500.0, 187500.0, 187500.0, 187500.0, 187500.0, 187500.0, 0.032, 0.184, 0.984, 192.0, 0.0, 0.0, 0.0, 0.0, 0.0, 0.0, 0.0, 0.0, 0.0, 1.6953694141039927E9, 0.0, 2023-09-22 09:56:54.103
52.0, 3920.294811760761, 187500.0, 187500.0, 187500.0, 187500.0, 187500.0, 187500.0, 187500.0, 0.032, 0.184, 0.984, 192.0, 0.0, 0.0, 0.0, 0.0, 0.0, 0.0, 0.0, 0.0, 0.0, 1.6953694141040506E9, 0.0, 2023-09-22 09:56:54.104
53.0, 3887.2142299669067, 187500.0, 187500.0, 187500.0, 187500.0, 187500.0, 187500.0, 187500.0, 0.032, 0.184, 0.984, 192.0, 0.0, 0.0, 0.0, 0.0, 0.0, 0.0, 0.0, 0.0, 0.0, 1.695369414104112E9, 0.0, 2023-09-22 09:56:54.104
54.0, 3869.645758825035, 187500.0, 187500.0, 187500.0, 187500.0, 187500.0, 187500.0, 187500.0, 0.032, 0.184, 0.984, 192.0, 0.0, 0.0, 0.0, 0.0, 0.0, 0.0, 0.0, 0.0, 0.0, 1.6953694141041758E9, 0.0, 2023-09-22 09:56:54.104
55.0, 3860.459191853904, 187500.0, 187500.0, 187500.0, 187500.0, 187500.0, 187500.0, 187500.0, 0.032, 0.184, 0.984, 192.0, 0.0, 0.0, 0.0, 0.0, 0.0, 0.0, 0.0, 0.0, 0.0, 1.6953694141042447E9, 0.0, 2023-09-22 09:56:54.104
56.0, 3860.883874998555, 187500.0, 187500.0, 187500.0, 187500.0, 187500.0, 187500.0, 187500.0, 0.032, 0.184, 0.984, 192.0, 0.0, 0.0, 0.0, 0.0, 0.0, 0.0, 0.0, 0.0, 0.0, 1.6953694141043224E9, 0.0, 2023-09-22 09:56:54.104
57.0, 3894.366788192605, 187500.0, 187500.0, 187500.0, 187500.0, 187500.0, 187500.0, 187500.0, 0.03, 0.184, 0.984, 192.0, 0.0, 240.0, 5.0, 192.0, 30.0, 192.0, 0.0, 0.0, 0.0, 1.6953694141043952E9, 0.0, 2023-09-22 09:56:54.104
58.0, 3912.8293291126884, 187500.0, 187500.0, 187500.0, 187500.0, 187500.0, 187500.0, 187500.0, 0.03, 0.184, 0.984, 192.0, 0.0, 0.0, 0.0, 0.0, 0.0, 0.0, 0.0, 0.0, 0.0, 1.6953694141044824E9, 0.0, 2023-09-22 09:56:54.104
59.0, 3922.1276548060964, 187500.0, 187500.0, 187500.0, 187500.0, 187500.0, 187500.0, 187500.0, 0.03, 0.184, 0.984, 192.0, 0.0, 0.0, 0.0, 0.0, 0.0, 0.0, 0.0, 0.0, 0.0, 1.695369414104539E9, 0.0, 2023-09-22 09:56:54.104
60.0, 3920.4065704830377, 187500.0, 187500.0, 187500.0, 187500.0, 187500.0, 187500.0, 187500.0, 0.03, 0.184, 0.984, 192.0, 0.0, 0.0, 0.0, 0.0, 0.0, 0.0, 0.0, 0.0, 0.0, 1.6953694141045792E9, 0.0, 2023-09-22 09:56:54.104
61.0, 3886.789546822256, 187500.0, 187500.0, 187500.0, 187500.0, 187500.0, 187500.0, 187500.0, 0.03, 0.184, 0.984, 192.0, 0.0, 0.0, 0.0, 0.0, 0.0, 0.0, 0.0, 0.0, 0.0, 1.6953694141046169E9, 0.0, 2023-09-22 09:56:54.104
62.0, 3868.751689046823, 187500.0, 187500.0, 187500.0, 187500.0, 187500.0, 187500.0, 187500.0, 0.03, 0.184, 0.984, 192.0, 0.0, 0.0, 0.0, 0.0, 0.0, 0.0, 0.0, 0.0, 0.0, 1.6953694141055305E9, 0.0, 2023-09-22 09:56:54.105
63.0, 3859.6992325424235, 187500.0, 187500.0, 187500.0, 187500.0, 187500.0, 187500.0, 187500.0, 0.03, 0.184, 0.984, 192.0, 0.0, 0.0, 0.0, 0.0, 0.0, 0.0, 0.0, 0.0, 0.0, 1.6953694141055896E9, 0.0, 2023-09-22 09:56:54.105
64.0, 3860.772116276278, 187500.0, 187500.0, 187500.0, 187500.0, 187500.0, 187500.0, 187500.0, 0.03, 0.184, 0.984, 192.0, 0.0, 0.0, 0.0, 0.0, 0.0, 0.0, 0.0, 0.0, 0.0, 1.695369414105663E9, 0.0, 2023-09-22 09:56:54.105
65.0, 3894.523250403792, 187500.0, 187500.0, 187500.0, 187500.0, 187500.0, 187500.0, 187500.0, 0.03, 0.184, 0.984, 192.0, 0.0, 0.0, 0.0, 0.0, 0.0, 0.0, 0.0, 0.0, 0.0, 1.6953694141057518E9, 0.0, 2023-09-22 09:56:54.105
66.0, 3912.3822942235824, 187500.0, 187500.0, 187500.0, 187500.0, 187500.0, 187500.0, 187500.0, 0.03, 0.184, 0.984, 192.0, 0.0, 0.0, 0.0, 0.0, 0.0, 0.0, 0.0, 0.0, 0.0, 1.695369414105804E9, 0.0, 2023-09-22 09:56:54.105
67.0, 3921.4794542168925, 187500.0, 187500.0, 187500.0, 187500.0, 187500.0, 187500.0, 187500.0, 0.036000000000000004, 0.188, 0.984, 192.0, 1.0, 32.0, 5.0, 224.0, 30.0, 192.0, 0.0, 0.0, 0.0, 1.6953694141058486E9, 0.0, 2023-09-22 09:56:54.105
68.0, 3920.2277565273953, 187500.0, 187500.0, 187500.0, 187500.0, 187500.0, 187500.0, 187500.0, 0.036000000000000004, 0.188, 0.984, 192.0, 0.0, 0.0, 0.0, 0.0, 0.0, 0.0, 0.0, 0.0, 0.0, 1.6953694141058977E9, 0.0, 2023-09-22 09:56:54.105
69.0, 3886.543677633247, 187500.0, 187500.0, 187500.0, 187500.0, 187500.0, 187500.0, 187500.0, 0.036000000000000004, 0.188, 0.984, 192.0, 0.0, 0.0, 0.0, 0.0, 0.0, 0.0, 0.0, 0.0, 0.0, 1.6953694141059463E9, 0.0, 2023-09-22 09:56:54.105
70.0, 3868.595226835636, 187500.0, 187500.0, 187500.0, 187500.0, 187500.0, 187500.0, 187500.0, 0.036000000000000004, 0.188, 0.984, 192.0, 0.0, 0.0, 0.0, 0.0, 0.0, 0.0, 0.0, 0.0, 0.0, 1.6953694141059854E9, 0.0, 2023-09-22 09:56:54.105
71.0, 3859.743936031334, 187500.0, 187500.0, 187500.0, 187500.0, 187500.0, 187500.0, 187500.0, 0.036000000000000004, 0.188, 0.984, 192.0, 0.0, 0.0, 0.0, 0.0, 0.0, 0.0, 0.0, 0.0, 0.0, 1.6953694141060271E9, 0.0, 2023-09-22 09:56:54.106
72.0, 3860.392136620538, 187500.0, 187500.0, 187500.0, 187500.0, 187500.0, 187500.0, 187500.0, 0.036000000000000004, 0.188, 0.984, 192.0, 0.0, 0.0, 0.0, 0.0, 0.0, 0.0, 0.0, 0.0, 0.0, 1.695369414106079E9, 0.0, 2023-09-22 09:56:54.106
73.0, 3894.1432707480517, 187500.0, 187500.0, 187500.0, 187500.0, 187500.0, 187500.0, 187500.0, 0.036000000000000004, 0.188, 0.984, 192.0, 0.0, 0.0, 0.0, 0.0, 0.0, 0.0, 0.0, 0.0, 0.0, 1.6953694141061451E9, 0.0, 2023-09-22 09:56:54.106
74.0, 3912.7399221348674, 187500.0, 187500.0, 187500.0, 187500.0, 187500.0, 187500.0, 187500.0, 0.036000000000000004, 0.188, 0.984, 192.0, 0.0, 0.0, 0.0, 0.0, 0.0, 0.0, 0.0, 0.0, 0.0, 1.695369414106198E9, 0.0, 2023-09-22 09:56:54.106
75.0, 3921.971192594909, 187500.0, 187500.0, 187500.0, 187500.0, 187500.0, 187500.0, 187500.0, 0.036000000000000004, 0.188, 0.984, 192.0, 0.0, 0.0, 0.0, 0.0, 0.0, 0.0, 0.0, 0.0, 0.0, 1.6953694141062517E9, 0.0, 2023-09-22 09:56:54.106
76.0, 3920.4736257164036, 187500.0, 187500.0, 187500.0, 187500.0, 187500.0, 187500.0, 187500.0, 0.036000000000000004, 0.188, 0.984, 192.0, 0.0, 0.0, 0.0, 0.0, 0.0, 0.0, 0.0, 0.0, 0.0, 1.695369414106316E9, 0.0, 2023-09-22 09:56:54.106
77.0, 3886.6107328666135, 187500.0, 187500.0, 187500.0, 187500.0, 187500.0, 187500.0, 187500.0, 0.034, 0.194, 0.984, 192.0, 1.0, 16.0, 6.0, 16.0, 30.0, 192.0, 0.0, 0.0, 0.0, 1.6953694141064332E9, 0.0, 2023-09-22 09:56:54.106
78.0, 3868.327005902172, 187500.0, 187500.0, 187500.0, 187500.0, 187500.0, 187500.0, 187500.0, 0.034, 0.194, 0.984, 192.0, 0.0, 0.0, 0.0, 0.0, 0.0, 0.0, 0.0, 0.0, 0.0, 1.695369414106682E9, 0.0, 2023-09-22 09:56:54.106
79.0, 3859.4086598645044, 187500.0, 187500.0, 187500.0, 187500.0, 187500.0, 187500.0, 187500.0, 0.034, 0.194, 0.984, 192.0, 0.0, 0.0, 0.0, 0.0, 0.0, 0.0, 0.0, 0.0, 0.0, 1.695369414106723E9, 0.0, 2023-09-22 09:56:54.106
80.0, 3860.436840109449, 187500.0, 187500.0, 187500.0, 187500.0, 187500.0, 187500.0, 187500.0, 0.034, 0.194, 0.984, 192.0, 0.0, 0.0, 0.0, 0.0, 0.0, 0.0, 0.0, 0.0, 0.0, 1.695369414106765E9, 0.0, 2023-09-22 09:56:54.106
81.0, 3893.5397736477585, 187500.0, 187500.0, 187500.0, 187500.0, 187500.0, 187500.0, 187500.0, 0.034, 0.194, 0.984, 192.0, 0.0, 0.0, 0.0, 0.0, 0.0, 0.0, 0.0, 0.0, 0.0, 1.695369414106807E9, 0.0, 2023-09-22 09:56:54.106
82.0, 3911.8011488677444, 187500.0, 187500.0, 187500.0, 187500.0, 187500.0, 187500.0, 187500.0, 0.034, 0.194, 0.984, 192.0, 0.0, 0.0, 0.0, 0.0, 0.0, 0.0, 0.0, 0.0, 0.0, 1.69536941410685E9, 0.0, 2023-09-22 09:56:54.106
83.0, 3921.702971661445, 187500.0, 187500.0, 187500.0, 187500.0, 187500.0, 187500.0, 187500.0, 0.034, 0.194, 0.984, 192.0, 0.0, 0.0, 0.0, 0.0, 0.0, 0.0, 0.0, 0.0, 0.0, 1.695369414106891E9, 0.0, 2023-09-22 09:56:54.106
84.0, 3920.6971431609563, 187500.0, 187500.0, 187500.0, 187500.0, 187500.0, 187500.0, 187500.0, 0.034, 0.194, 0.984, 192.0, 0.0, 0.0, 0.0, 0.0, 0.0, 0.0, 0.0, 0.0, 0.0, 1.6953694141069324E9, 0.0, 2023-09-22 09:56:54.106
85.0, 3886.9236572889877, 187500.0, 187500.0, 187500.0, 187500.0, 187500.0, 187500.0, 187500.0, 0.034, 0.194, 0.984, 192.0, 0.0, 0.0, 0.0, 0.0, 0.0, 0.0, 0.0, 0.0, 0.0, 1.6953694141069717E9, 0.0, 2023-09-22 09:56:54.106
86.0, 3868.7069855579125, 187500.0, 187500.0, 187500.0, 187500.0, 187500.0, 187500.0, 187500.0, 0.034, 0.194, 0.984, 192.0, 0.0, 0.0, 0.0, 0.0, 0.0, 0.0, 0.0, 0.0, 0.0, 1.695369414107013E9, 0.0, 2023-09-22 09:56:54.107
87.0, 3859.0957354421303, 187500.0, 187500.0, 187500.0, 187500.0, 187500.0, 187500.0, 187500.0, 0.032, 0.19, 0.982, 192.0, 1.0, 0.0, 5.0, 240.0, 30.0, 176.0, 0.0, 0.0, 0.0, 1.6953694141070883E9, 0.0, 2023-09-22 09:56:54.107
88.0, 3860.6603575540016, 187500.0, 187500.0, 187500.0, 187500.0, 187500.0, 187500.0, 187500.0, 0.032, 0.19, 0.982, 192.0, 0.0, 0.0, 0.0, 0.0, 0.0, 0.0, 0.0, 0.0, 0.0, 1.6953694141071413E9, 0.0, 2023-09-22 09:56:54.107
89.0, 3894.1432707480517, 187500.0, 187500.0, 187500.0, 187500.0, 187500.0, 187500.0, 187500.0, 0.032, 0.19, 0.982, 192.0, 0.0, 0.0, 0.0, 0.0, 0.0, 0.0, 0.0, 0.0, 0.0, 1.6953694141071873E9, 0.0, 2023-09-22 09:56:54.107
90.0, 3912.1811285234844, 187500.0, 187500.0, 187500.0, 187500.0, 187500.0, 187500.0, 187500.0, 0.032, 0.19, 0.982, 192.0, 0.0, 0.0, 0.0, 0.0, 0.0, 0.0, 0.0, 0.0, 0.0, 1.6953694141072307E9, 0.0, 2023-09-22 09:56:54.107
91.0, 3921.2112332834286, 187500.0, 187500.0, 187500.0, 187500.0, 187500.0, 187500.0, 187500.0, 0.032, 0.19, 0.982, 192.0, 0.0, 0.0, 0.0, 0.0, 0.0, 0.0, 0.0, 0.0, 0.0, 1.6953694141072738E9, 0.0, 2023-09-22 09:56:54.107
92.0, 3919.8701286161104, 187500.0, 187500.0, 187500.0, 187500.0, 187500.0, 187500.0, 187500.0, 0.032, 0.19, 0.982, 192.0, 0.0, 0.0, 0.0, 0.0, 0.0, 0.0, 0.0, 0.0, 0.0, 1.695369414107318E9, 0.0, 2023-09-22 09:56:54.107
93.0, 3886.1860497219623, 187500.0, 187500.0, 187500.0, 187500.0, 187500.0, 187500.0, 187500.0, 0.032, 0.19, 0.982, 192.0, 0.0, 0.0, 0.0, 0.0, 0.0, 0.0, 0.0, 0.0, 0.0, 1.6953694141075296E9, 0.0, 2023-09-22 09:56:54.107
94.0, 3868.2823024132613, 187500.0, 187500.0, 187500.0, 187500.0, 187500.0, 187500.0, 187500.0, 0.032, 0.19, 0.982, 192.0, 0.0, 0.0, 0.0, 0.0, 0.0, 0.0, 0.0, 0.0, 0.0, 1.695369414107587E9, 0.0, 2023-09-22 09:56:54.107
95.0, 3859.788639520245, 187500.0, 187500.0, 187500.0, 187500.0, 187500.0, 187500.0, 187500.0, 0.032, 0.19, 0.982, 192.0, 0.0, 0.0, 0.0, 0.0, 0.0, 0.0, 0.0, 0.0, 0.0, 1.6953694141076424E9, 0.0, 2023-09-22 09:56:54.107
96.0, 3860.235674409351, 187500.0, 187500.0, 187500.0, 187500.0, 187500.0, 187500.0, 187500.0, 0.032, 0.19, 0.982, 192.0, 0.0, 0.0, 0.0, 0.0, 0.0, 0.0, 0.0, 0.0, 0.0, 1.6953694141077018E9, 0.0, 2023-09-22 09:56:54.107
97.0, 3893.4950701588477, 187500.0, 187500.0, 187500.0, 187500.0, 187500.0, 187500.0, 187500.0, 0.036000000000000004, 0.182, 0.98, 192.0, 1.0, 32.0, 5.0, 176.0, 30.0, 160.0, 0.0, 0.0, 0.0, 1.6953694141077597E9, 0.0, 2023-09-22 09:56:54.107
98.0, 3911.7564453788336, 187500.0, 187500.0, 187500.0, 187500.0, 187500.0, 187500.0, 187500.0, 0.036000000000000004, 0.182, 0.98, 192.0, 0.0, 0.0, 0.0, 0.0, 0.0, 0.0, 0.0, 0.0, 0.0, 1.6953694141078184E9, 0.0, 2023-09-22 09:56:54.107
99.0, 3921.5241577058027, 187500.0, 187500.0, 187500.0, 187500.0, 187500.0, 187500.0, 187500.0, 0.036000000000000004, 0.182, 0.98, 192.0, 0.0, 0.0, 0.0, 0.0, 0.0, 0.0, 0.0, 0.0, 0.0, 1.695369414107878E9, 0.0, 2023-09-22 09:56:54.107
100.0, 3920.2724600163056, 187500.0, 187500.0, 187500.0, 187500.0, 187500.0, 187500.0, 187500.0, 0.036000000000000004, 0.182, 0.98, 192.0, 0.0, 0.0, 0.0, 0.0, 0.0, 0.0, 0.0, 0.0, 0.0, 1.695369414107936E9, 0.0, 2023-09-22 09:56:54.107
101.0, 3886.3425119331496, 187500.0, 187500.0, 187500.0, 187500.0, 187500.0, 187500.0, 187500.0, 0.036000000000000004, 0.182, 0.98, 192.0, 0.0, 0.0, 0.0, 0.0, 0.0, 0.0, 0.0, 0.0, 0.0, 1.695369414107993E9, 0.0, 2023-09-22 09:56:54.107
102.0, 3868.0811367131637, 187500.0, 187500.0, 187500.0, 187500.0, 187500.0, 187500.0, 187500.0, 0.036000000000000004, 0.182, 0.98, 192.0, 0.0, 0.0, 0.0, 0.0, 0.0, 0.0, 0.0, 0.0, 0.0, 1.6953694141080399E9, 0.0, 2023-09-22 09:56:54.108
103.0, 3859.5427703312366, 187500.0, 187500.0, 187500.0, 187500.0, 187500.0, 187500.0, 187500.0, 0.036000000000000004, 0.182, 0.98, 192.0, 0.0, 0.0, 0.0, 0.0, 0.0, 0.0, 0.0, 0.0, 0.0, 1.6953694141081097E9, 0.0, 2023-09-22 09:56:54.108
104.0, 3861.0179854652865, 187500.0, 187500.0, 187500.0, 187500.0, 187500.0, 187500.0, 187500.0, 0.036000000000000004, 0.182, 0.98, 192.0, 0.0, 0.0, 0.0, 0.0, 0.0, 0.0, 0.0, 0.0, 0.0, 1.6953694141082044E9, 0.0, 2023-09-22 09:56:54.108
105.0, 3894.1432707480517, 187500.0, 187500.0, 187500.0, 187500.0, 187500.0, 187500.0, 187500.0, 0.036000000000000004, 0.182, 0.98, 192.0, 0.0, 0.0, 0.0, 0.0, 0.0, 0.0, 0.0, 0.0, 0.0, 1.6953694141083024E9, 0.0, 2023-09-22 09:56:54.108
106.0, 3912.1140732901185, 187500.0, 187500.0, 187500.0, 187500.0, 187500.0, 187500.0, 187500.0, 0.036000000000000004, 0.182, 0.98, 192.0, 0.0, 0.0, 0.0, 0.0, 0.0, 0.0, 0.0, 0.0, 0.0, 1.695369414108376E9, 0.0, 2023-09-22 09:56:54.108
107.0, 3921.1888815389734, 187500.0, 187500.0, 187500.0, 187500.0, 187500.0, 187500.0, 187500.0, 0.032, 0.186, 0.982, 192.0, 1.0, 0.0, 5.0, 208.0, 30.0, 176.0, 0.0, 0.0, 0.0, 1.695369414108446E9, 0.0, 2023-09-22 09:56:54.108
108.0, 3920.160701294029, 187500.0, 187500.0, 187500.0, 187500.0, 187500.0, 187500.0, 187500.0, 0.032, 0.186, 0.982, 192.0, 0.0, 0.0, 0.0, 0.0, 0.0, 0.0, 0.0, 0.0, 0.0, 1.695369414108774E9, 0.0, 2023-09-22 09:56:54.108
109.0, 3886.856602055622, 187500.0, 187500.0, 187500.0, 187500.0, 187500.0, 187500.0, 187500.0, 0.032, 0.186, 0.982, 192.0, 0.0, 0.0, 0.0, 0.0, 0.0, 0.0, 0.0, 0.0, 0.0, 1.6953694141088548E9, 0.0, 2023-09-22 09:56:54.108
110.0, 3868.8187442801886, 187500.0, 187500.0, 187500.0, 187500.0, 187500.0, 187500.0, 187500.0, 0.032, 0.186, 0.982, 192.0, 0.0, 0.0, 0.0, 0.0, 0.0, 0.0, 0.0, 0.0, 0.0, 1.6953694141089244E9, 0.0, 2023-09-22 09:56:54.108
111.0, 3859.43101160896, 187500.0, 187500.0, 187500.0, 187500.0, 187500.0, 187500.0, 187500.0, 0.032, 0.186, 0.982, 192.0, 0.0, 0.0, 0.0, 0.0, 0.0, 0.0, 0.0, 0.0, 0.0, 1.695369414108988E9, 0.0, 2023-09-22 09:56:54.108
112.0, 3860.3027296427167, 187500.0, 187500.0, 187500.0, 187500.0, 187500.0, 187500.0, 187500.0, 0.032, 0.186, 0.982, 192.0, 0.0, 0.0, 0.0, 0.0, 0.0, 0.0, 0.0, 0.0, 0.0, 1.6953694141090314E9, 0.0, 2023-09-22 09:56:54.109
113.0, 3893.8526980701326, 187500.0, 187500.0, 187500.0, 187500.0, 187500.0, 187500.0, 187500.0, 0.032, 0.186, 0.982, 192.0, 0.0, 0.0, 0.0, 0.0, 0.0, 0.0, 0.0, 0.0, 0.0, 1.6953694141090798E9, 0.0, 2023-09-22 09:56:54.109
114.0, 3912.4269977124927, 187500.0, 187500.0, 187500.0, 187500.0, 187500.0, 187500.0, 187500.0, 0.032, 0.186, 0.982, 192.0, 0.0, 0.0, 0.0, 0.0, 0.0, 0.0, 0.0, 0.0, 0.0, 1.6953694141091363E9, 0.0, 2023-09-22 09:56:54.109
115.0, 3921.4794542168925, 187500.0, 187500.0, 187500.0, 187500.0, 187500.0, 187500.0, 187500.0, 0.032, 0.186, 0.982, 192.0, 0.0, 0.0, 0.0, 0.0, 0.0, 0.0, 0.0, 0.0, 0.0, 1.6953694141091678E9, 0.0, 2023-09-22 09:56:54.109
116.0, 3920.138349549574, 187500.0, 187500.0, 187500.0, 187500.0, 187500.0, 187500.0, 187500.0, 0.032, 0.186, 0.982, 192.0, 0.0, 0.0, 0.0, 0.0, 0.0, 0.0, 0.0, 0.0, 0.0, 1.6953694141091945E9, 0.0, 2023-09-22 09:56:54.109
117.0, 3886.208401466418, 187500.0, 187500.0, 187500.0, 187500.0, 187500.0, 187500.0, 187500.0, 0.038, 0.186, 0.984, 192.0, 1.0, 48.0, 5.0, 208.0, 30.0, 192.0, 0.0, 0.0, 0.0, 1.6953694141092205E9, 0.0, 2023-09-22 09:56:54.109
118.0, 3868.550523346725, 187500.0, 187500.0, 187500.0, 187500.0, 187500.0, 187500.0, 187500.0, 0.038, 0.186, 0.984, 192.0, 0.0, 0.0, 0.0, 0.0, 0.0, 0.0, 0.0, 0.0, 0.0, 1.6953694141092484E9, 0.0, 2023-09-22 09:56:54.109
119.0, 3859.7662877757894, 187500.0, 187500.0, 187500.0, 187500.0, 187500.0, 187500.0, 187500.0, 0.038, 0.186, 0.984, 192.0, 0.0, 0.0, 0.0, 0.0, 0.0, 0.0, 0.0, 0.0, 0.0, 1.695369414109282E9, 0.0, 2023-09-22 09:56:54.109
120.0, 3860.90622674301, 187500.0, 187500.0, 187500.0, 187500.0, 187500.0, 187500.0, 187500.0, 0.038, 0.186, 0.984, 192.0, 0.0, 0.0, 0.0, 0.0, 0.0, 0.0, 0.0, 0.0, 0.0, 1.6953694141093256E9, 0.0, 2023-09-22 09:56:54.109
121.0, 3894.232677725873, 187500.0, 187500.0, 187500.0, 187500.0, 187500.0, 187500.0, 187500.0, 0.038, 0.186, 0.984, 192.0, 0.0, 0.0, 0.0, 0.0, 0.0, 0.0, 0.0, 0.0, 0.0, 1.6953694145802937E9, 0.0, 2023-09-22 09:56:54.580
122.0, 3911.979962823387, 187500.0, 187500.0, 187500.0, 187500.0, 187500.0, 187500.0, 187500.0, 0.038, 0.186, 0.984, 192.0, 0.0, 0.0, 0.0, 0.0, 0.0, 0.0, 0.0, 0.0, 0.0, 1.6953694145805247E9, 0.0, 2023-09-22 09:56:54.580
123.0, 3921.099474561152, 187500.0, 187500.0, 187500.0, 187500.0, 187500.0, 187500.0, 187500.0, 0.038, 0.186, 0.984, 192.0, 0.0, 0.0, 0.0, 0.0, 0.0, 0.0, 0.0, 0.0, 0.0, 1.695369414580572E9, 0.0, 2023-09-22 09:56:54.580
124.0, 3920.160701294029, 187500.0, 187500.0, 187500.0, 187500.0, 187500.0, 187500.0, 187500.0, 0.038, 0.186, 0.984, 192.0, 0.0, 0.0, 0.0, 0.0, 0.0, 0.0, 0.0, 0.0, 0.0, 1.695369414581101E9, 0.0, 2023-09-22 09:56:54.581
125.0, 3886.878953800077, 187500.0, 187500.0, 187500.0, 187500.0, 187500.0, 187500.0, 187500.0, 0.038, 0.186, 0.984, 192.0, 0.0, 0.0, 0.0, 0.0, 0.0, 0.0, 0.0, 0.0, 0.0, 1.6953694145811825E9, 0.0, 2023-09-22 09:56:54.581
126.0, 3868.52817160227, 187500.0, 187500.0, 187500.0, 187500.0, 187500.0, 187500.0, 187500.0, 0.038, 0.186, 0.984, 192.0, 0.0, 0.0, 0.0, 0.0, 0.0, 0.0, 0.0, 0.0, 0.0, 1.695369414581232E9, 0.0, 2023-09-22 09:56:54.581
127.0, 3859.6545290535128, 187500.0, 187500.0, 187500.0, 187500.0, 187500.0, 187500.0, 187500.0, 0.042, 0.188, 0.984, 192.0, 1.0, 80.0, 5.0, 224.0, 30.0, 192.0, 0.0, 0.0, 0.0, 1.6953694145813048E9, 0.0, 2023-09-22 09:56:54.581
128.0, 3860.749764531823, 187500.0, 187500.0, 187500.0, 187500.0, 187500.0, 187500.0, 187500.0, 0.042, 0.188, 0.984, 192.0, 0.0, 0.0, 0.0, 0.0, 0.0, 0.0, 0.0, 0.0, 0.0, 1.695369414581404E9, 0.0, 2023-09-22 09:56:54.581
129.0, 3894.5008986593366, 187500.0, 187500.0, 187500.0, 187500.0, 187500.0, 187500.0, 187500.0, 0.042, 0.188, 0.984, 192.0, 0.0, 0.0, 0.0, 0.0, 0.0, 0.0, 0.0, 0.0, 0.0, 1.6953694145814848E9, 0.0, 2023-09-22 09:56:54.581
130.0, 3912.7622738793225, 187500.0, 187500.0, 187500.0, 187500.0, 187500.0, 187500.0, 187500.0, 0.042, 0.188, 0.984, 192.0, 0.0, 0.0, 0.0, 0.0, 0.0, 0.0, 0.0, 0.0, 0.0, 1.6953694145815485E9, 0.0, 2023-09-22 09:56:54.581
131.0, 3921.4794542168925, 187500.0, 187500.0, 187500.0, 187500.0, 187500.0, 187500.0, 187500.0, 0.042, 0.188, 0.984, 192.0, 0.0, 0.0, 0.0, 0.0, 0.0, 0.0, 0.0, 0.0, 0.0, 1.695369414581608E9, 0.0, 2023-09-22 09:56:54.581
132.0, 3920.384218738582, 187500.0, 187500.0, 187500.0, 187500.0, 187500.0, 187500.0, 187500.0, 0.042, 0.188, 0.984, 192.0, 0.0, 0.0, 0.0, 0.0, 0.0, 0.0, 0.0, 0.0, 0.0, 1.6953694145816596E9, 0.0, 2023-09-22 09:56:54.581
133.0, 3887.258933455817, 187500.0, 187500.0, 187500.0, 187500.0, 187500.0, 187500.0, 187500.0, 0.042, 0.188, 0.984, 192.0, 0.0, 0.0, 0.0, 0.0, 0.0, 0.0, 0.0, 0.0, 0.0, 1.695369414581705E9, 0.0, 2023-09-22 09:56:54.581
134.0, 3869.0199099802867, 187500.0, 187500.0, 187500.0, 187500.0, 187500.0, 187500.0, 187500.0, 0.042, 0.188, 0.984, 192.0, 0.0, 0.0, 0.0, 0.0, 0.0, 0.0, 0.0, 0.0, 0.0, 1.6953694145817523E9, 0.0, 2023-09-22 09:56:54.581
135.0, 3859.878046498066, 187500.0, 187500.0, 187500.0, 187500.0, 187500.0, 187500.0, 187500.0, 0.042, 0.188, 0.984, 192.0, 0.0, 0.0, 0.0, 0.0, 0.0, 0.0, 0.0, 0.0, 0.0, 1.6953694145817976E9, 0.0, 2023-09-22 09:56:54.581
136.0, 3860.5709505761806, 187500.0, 187500.0, 187500.0, 187500.0, 187500.0, 187500.0, 187500.0, 0.042, 0.188, 0.984, 192.0, 0.0, 0.0, 0.0, 0.0, 0.0, 0.0, 0.0, 0.0, 0.0, 1.695369414581843E9, 0.0, 2023-09-22 09:56:54.581
137.0, 3894.2103259814176, 187500.0, 187500.0, 187500.0, 187500.0, 187500.0, 187500.0, 187500.0, 0.044, 0.186, 0.986, 192.0, 1.0, 96.0, 5.0, 208.0, 30.0, 208.0, 0.0, 0.0, 0.0, 1.6953694145818884E9, 0.0, 2023-09-22 09:56:54.581
138.0, 3912.6728669015015, 187500.0, 187500.0, 187500.0, 187500.0, 187500.0, 187500.0, 187500.0, 0.044, 0.186, 0.986, 192.0, 0.0, 0.0, 0.0, 0.0, 0.0, 0.0, 0.0, 0.0, 0.0, 1.6953694145819361E9, 0.0, 2023-09-22 09:56:54.581
139.0, 3922.1947100394623, 187500.0, 187500.0, 187500.0, 187500.0, 187500.0, 187500.0, 187500.0, 0.044, 0.186, 0.986, 192.0, 0.0, 0.0, 0.0, 0.0, 0.0, 0.0, 0.0, 0.0, 0.0, 1.6953694145821073E9, 0.0, 2023-09-22 09:56:54.582
140.0, 3920.9653640944202, 187500.0, 187500.0, 187500.0, 187500.0, 187500.0, 187500.0, 187500.0, 0.044, 0.186, 0.986, 192.0, 0.0, 0.0, 0.0, 0.0, 0.0, 0.0, 0.0, 0.0, 0.0, 1.695369414582154E9, 0.0, 2023-09-22 09:56:54.582
141.0, 3886.9683607778984, 187500.0, 187500.0, 187500.0, 187500.0, 187500.0, 187500.0, 187500.0, 0.044, 0.186, 0.986, 192.0, 0.0, 0.0, 0.0, 0.0, 0.0, 0.0, 0.0, 0.0, 0.0, 1.6953694145822008E9, 0.0, 2023-09-22 09:56:54.582
142.0, 3868.5058198578145, 187500.0, 187500.0, 187500.0, 187500.0, 187500.0, 187500.0, 187500.0, 0.044, 0.186, 0.986, 192.0, 0.0, 0.0, 0.0, 0.0, 0.0, 0.0, 0.0, 0.0, 0.0, 1.6953694145822468E9, 0.0, 2023-09-22 09:56:54.582
143.0, 3859.6098255646025, 187500.0, 187500.0, 187500.0, 187500.0, 187500.0, 187500.0, 187500.0, 0.044, 0.186, 0.986, 192.0, 0.0, 0.0, 0.0, 0.0, 0.0, 0.0, 0.0, 0.0, 0.0, 1.6953694145822942E9, 0.0, 2023-09-22 09:56:54.582
144.0, 3861.129744187563, 187500.0, 187500.0, 187500.0, 187500.0, 187500.0, 187500.0, 187500.0, 0.044, 0.186, 0.986, 192.0, 0.0, 0.0, 0.0, 0.0, 0.0, 0.0, 0.0, 0.0, 0.0, 1.6953694145823395E9, 0.0, 2023-09-22 09:56:54.582
145.0, 3895.037340526264, 187500.0, 187500.0, 187500.0, 187500.0, 187500.0, 187500.0, 187500.0, 0.044, 0.186, 0.986, 192.0, 0.0, 0.0, 0.0, 0.0, 0.0, 0.0, 0.0, 0.0, 0.0, 1.6953694145823853E9, 0.0, 2023-09-22 09:56:54.582
146.0, 3913.254012257339, 187500.0, 187500.0, 187500.0, 187500.0, 187500.0, 187500.0, 187500.0, 0.044, 0.186, 0.986, 192.0, 0.0, 0.0, 0.0, 0.0, 0.0, 0.0, 0.0, 0.0, 0.0, 1.69536941458244E9, 0.0, 2023-09-22 09:56:54.582
147.0, 3921.814730383722, 187500.0, 187500.0, 187500.0, 187500.0, 187500.0, 187500.0, 187500.0, 0.038, 0.188, 0.988, 192.0, 1.0, 48.0, 5.0, 224.0, 30.0, 224.0, 0.0, 0.0, 0.0, 1.6953694145824862E9, 0.0, 2023-09-22 09:56:54.582
148.0, 3920.8536053721436, 187500.0, 187500.0, 187500.0, 187500.0, 187500.0, 187500.0, 187500.0, 0.038, 0.188, 0.988, 192.0, 0.0, 0.0, 0.0, 0.0, 0.0, 0.0, 0.0, 0.0, 0.0, 1.695369414582534E9, 0.0, 2023-09-22 09:56:54.582
149.0, 3887.5048026448258, 187500.0, 187500.0, 187500.0, 187500.0, 187500.0, 187500.0, 187500.0, 0.038, 0.188, 0.988, 192.0, 0.0, 0.0, 0.0, 0.0, 0.0, 0.0, 0.0, 0.0, 0.0, 1.6953694145825791E9, 0.0, 2023-09-22 09:56:54.582
150.0, 3869.6681105694906, 187500.0, 187500.0, 187500.0, 187500.0, 187500.0, 187500.0, 187500.0, 0.038, 0.188, 0.988, 192.0, 0.0, 0.0, 0.0, 0.0, 0.0, 0.0, 0.0, 0.0, 0.0, 1.6953694145826244E9, 0.0, 2023-09-22 09:56:54.582
151.0, 3860.436840109449, 187500.0, 187500.0, 187500.0, 187500.0, 187500.0, 187500.0, 187500.0, 0.038, 0.188, 0.988, 192.0, 0.0, 0.0, 0.0, 0.0, 0.0, 0.0, 0.0, 0.0, 0.0, 1.6953694145826697E9, 0.0, 2023-09-22 09:56:54.582
152.0, 3860.816819765189, 187500.0, 187500.0, 187500.0, 187500.0, 187500.0, 187500.0, 187500.0, 0.038, 0.188, 0.988, 192.0, 0.0, 0.0, 0.0, 0.0, 0.0, 0.0, 0.0, 0.0, 0.0, 1.695369414582715E9, 0.0, 2023-09-22 09:56:54.582
153.0, 3894.1879742369624, 187500.0, 187500.0, 187500.0, 187500.0, 187500.0, 187500.0, 187500.0, 0.038, 0.188, 0.988, 192.0, 0.0, 0.0, 0.0, 0.0, 0.0, 0.0, 0.0, 0.0, 0.0, 1.695369414582762E9, 0.0, 2023-09-22 09:56:54.582
154.0, 3912.3822942235824, 187500.0, 187500.0, 187500.0, 187500.0, 187500.0, 187500.0, 187500.0, 0.038, 0.188, 0.988, 192.0, 0.0, 0.0, 0.0, 0.0, 0.0, 0.0, 0.0, 0.0, 0.0, 1.695369414582874E9, 0.0, 2023-09-22 09:56:54.582
155.0, 3922.06059957273, 187500.0, 187500.0, 187500.0, 187500.0, 187500.0, 187500.0, 187500.0, 0.038, 0.188, 0.988, 192.0, 0.0, 0.0, 0.0, 0.0, 0.0, 0.0, 0.0, 0.0, 0.0, 1.6953694145829203E9, 0.0, 2023-09-22 09:56:54.582
156.0, 3920.7641983943226, 187500.0, 187500.0, 187500.0, 187500.0, 187500.0, 187500.0, 187500.0, 0.038, 0.188, 0.988, 192.0, 0.0, 0.0, 0.0, 0.0, 0.0, 0.0, 0.0, 0.0, 0.0, 1.6953694145829663E9, 0.0, 2023-09-22 09:56:54.582
157.0, 3887.147174733541, 187500.0, 187500.0, 187500.0, 187500.0, 187500.0, 187500.0, 187500.0, 0.038, 0.184, 0.984, 192.0, 1.0, 48.0, 5.0, 192.0, 30.0, 192.0, 0.0, 0.0, 0.0, 1.6953694145830157E9, 0.0, 2023-09-22 09:56:54.583
158.0, 3869.176372191474, 187500.0, 187500.0, 187500.0, 187500.0, 187500.0, 187500.0, 187500.0, 0.038, 0.184, 0.984, 192.0, 0.0, 0.0, 0.0, 0.0, 0.0, 0.0, 0.0, 0.0, 0.0, 1.6953694145830724E9, 0.0, 2023-09-22 09:56:54.583
159.0, 3860.6603575540016, 187500.0, 187500.0, 187500.0, 187500.0, 187500.0, 187500.0, 187500.0, 0.038, 0.184, 0.984, 192.0, 0.0, 0.0, 0.0, 0.0, 0.0, 0.0, 0.0, 0.0, 0.0, 1.6953694145831213E9, 0.0, 2023-09-22 09:56:54.583
160.0, 3861.62148256558, 187500.0, 187500.0, 187500.0, 187500.0, 187500.0, 187500.0, 187500.0, 0.038, 0.184, 0.984, 192.0, 0.0, 0.0, 0.0, 0.0, 0.0, 0.0, 0.0, 0.0, 0.0, 1.6953694145831673E9, 0.0, 2023-09-22 09:56:54.583
161.0, 3894.813823081711, 187500.0, 187500.0, 187500.0, 187500.0, 187500.0, 187500.0, 187500.0, 0.038, 0.184, 0.984, 192.0, 0.0, 0.0, 0.0, 0.0, 0.0, 0.0, 0.0, 0.0, 0.0, 1.695369414583217E9, 0.0, 2023-09-22 09:56:54.583
162.0, 3913.008143068331, 187500.0, 187500.0, 187500.0, 187500.0, 187500.0, 187500.0, 187500.0, 0.038, 0.184, 0.984, 192.0, 0.0, 0.0, 0.0, 0.0, 0.0, 0.0, 0.0, 0.0, 0.0, 1.6953694145832736E9, 0.0, 2023-09-22 09:56:54.583
163.0, 3922.1276548060964, 187500.0, 187500.0, 187500.0, 187500.0, 187500.0, 187500.0, 187500.0, 0.038, 0.184, 0.984, 192.0, 0.0, 0.0, 0.0, 0.0, 0.0, 0.0, 0.0, 0.0, 0.0, 1.6953694145833213E9, 0.0, 2023-09-22 09:56:54.583
164.0, 3921.166529794518, 187500.0, 187500.0, 187500.0, 187500.0, 187500.0, 187500.0, 187500.0, 0.038, 0.184, 0.984, 192.0, 0.0, 0.0, 0.0, 0.0, 0.0, 0.0, 0.0, 0.0, 0.0, 1.695369414583365E9, 0.0, 2023-09-22 09:56:54.583
165.0, 3888.1530032340293, 187500.0, 187500.0, 187500.0, 187500.0, 187500.0, 187500.0, 187500.0, 0.038, 0.184, 0.984, 192.0, 0.0, 0.0, 0.0, 0.0, 0.0, 0.0, 0.0, 0.0, 0.0, 1.6953694145834074E9, 0.0, 2023-09-22 09:56:54.583
166.0, 3869.8245727806775, 187500.0, 187500.0, 187500.0, 187500.0, 187500.0, 187500.0, 187500.0, 0.038, 0.184, 0.984, 192.0, 0.0, 0.0, 0.0, 0.0, 0.0, 0.0, 0.0, 0.0, 0.0, 1.695369414583505E9, 0.0, 2023-09-22 09:56:54.583
167.0, 3860.682709298457, 187500.0, 187500.0, 187500.0, 187500.0, 187500.0, 187500.0, 187500.0, 0.038, 0.186, 0.986, 192.0, 1.0, 48.0, 5.0, 208.0, 30.0, 208.0, 0.0, 0.0, 0.0, 1.6953694145835516E9, 0.0, 2023-09-22 09:56:54.583
168.0, 3862.113220943597, 187500.0, 187500.0, 187500.0, 187500.0, 187500.0, 187500.0, 187500.0, 0.038, 0.186, 0.986, 192.0, 0.0, 0.0, 0.0, 0.0, 0.0, 0.0, 0.0, 0.0, 0.0, 1.6953694145835989E9, 0.0, 2023-09-22 09:56:54.583
169.0, 3895.953762048932, 187500.0, 187500.0, 187500.0, 187500.0, 187500.0, 187500.0, 187500.0, 0.038, 0.186, 0.986, 192.0, 0.0, 0.0, 0.0, 0.0, 0.0, 0.0, 0.0, 0.0, 0.0, 1.695369414583747E9, 0.0, 2023-09-22 09:56:54.583
170.0, 3914.1480820355514, 187500.0, 187500.0, 187500.0, 187500.0, 187500.0, 187500.0, 187500.0, 0.038, 0.186, 0.986, 192.0, 0.0, 0.0, 0.0, 0.0, 0.0, 0.0, 0.0, 0.0, 0.0, 1.6953694145837965E9, 0.0, 2023-09-22 09:56:54.583
171.0, 3923.0887798176745, 187500.0, 187500.0, 187500.0, 187500.0, 187500.0, 187500.0, 187500.0, 0.038, 0.186, 0.986, 192.0, 0.0, 0.0, 0.0, 0.0, 0.0, 0.0, 0.0, 0.0, 0.0, 1.695369414583849E9, 0.0, 2023-09-22 09:56:54.583
172.0, 3921.30064026125, 187500.0, 187500.0, 187500.0, 187500.0, 187500.0, 187500.0, 187500.0, 0.038, 0.186, 0.986, 192.0, 0.0, 0.0, 0.0, 0.0, 0.0, 0.0, 0.0, 0.0, 0.0, 1.6953694145839024E9, 0.0, 2023-09-22 09:56:54.583
173.0, 3888.0188927672975, 187500.0, 187500.0, 187500.0, 187500.0, 187500.0, 187500.0, 187500.0, 0.038, 0.186, 0.986, 192.0, 0.0, 0.0, 0.0, 0.0, 0.0, 0.0, 0.0, 0.0, 0.0, 1.695369414583959E9, 0.0, 2023-09-22 09:56:54.583
174.0, 3870.226904180873, 187500.0, 187500.0, 187500.0, 187500.0, 187500.0, 187500.0, 187500.0, 0.038, 0.186, 0.986, 192.0, 0.0, 0.0, 0.0, 0.0, 0.0, 0.0, 0.0, 0.0, 0.0, 1.695369414584018E9, 0.0, 2023-09-22 09:56:54.584
175.0, 3860.883874998555, 187500.0, 187500.0, 187500.0, 187500.0, 187500.0, 187500.0, 187500.0, 0.038, 0.186, 0.986, 192.0, 0.0, 0.0, 0.0, 0.0, 0.0, 0.0, 0.0, 0.0, 0.0, 1.6953694145840647E9, 0.0, 2023-09-22 09:56:54.584
176.0, 3862.0238139657754, 187500.0, 187500.0, 187500.0, 187500.0, 187500.0, 187500.0, 187500.0, 0.044, 0.19, 0.984, 192.0, 1.0, 96.0, 5.0, 240.0, 30.0, 192.0, 0.0, 0.0, 0.0, 1.6953694145841117E9, 0.0, 2023-09-22 09:56:54.584
177.0, 3895.327913204183, 187500.0, 187500.0, 187500.0, 187500.0, 187500.0, 187500.0, 187500.0, 0.044, 0.19, 0.984, 192.0, 0.0, 0.0, 0.0, 0.0, 0.0, 0.0, 0.0, 0.0, 0.0, 1.6953694145841715E9, 0.0, 2023-09-22 09:56:54.584
178.0, 3914.170433780007, 187500.0, 187500.0, 187500.0, 187500.0, 187500.0, 187500.0, 187500.0, 0.044, 0.19, 0.984, 192.0, 0.0, 0.0, 0.0, 0.0, 0.0, 0.0, 0.0, 0.0, 0.0, 1.6953694145842333E9, 0.0, 2023-09-22 09:56:54.584
179.0, 3923.2452420288614, 187500.0, 187500.0, 187500.0, 187500.0, 187500.0, 187500.0, 187500.0, 0.044, 0.19, 0.984, 192.0, 0.0, 0.0, 0.0, 0.0, 0.0, 0.0, 0.0, 0.0, 0.0, 1.6953694145842807E9, 0.0, 2023-09-22 09:56:54.584
180.0, 3921.9935443393642, 187500.0, 187500.0, 187500.0, 187500.0, 187500.0, 187500.0, 187500.0, 0.044, 0.19, 0.984, 192.0, 0.0, 0.0, 0.0, 0.0, 0.0, 0.0, 0.0, 0.0, 0.0, 1.6953694145843315E9, 0.0, 2023-09-22 09:56:54.584
181.0, 3888.3094654452166, 187500.0, 187500.0, 187500.0, 187500.0, 187500.0, 187500.0, 187500.0, 0.044, 0.19, 0.984, 192.0, 0.0, 0.0, 0.0, 0.0, 0.0, 0.0, 0.0, 0.0, 0.0, 1.6953694145843904E9, 0.0, 2023-09-22 09:56:54.584
182.0, 3870.0480902252307, 187500.0, 187500.0, 187500.0, 187500.0, 187500.0, 187500.0, 187500.0, 0.044, 0.19, 0.984, 192.0, 0.0, 0.0, 0.0, 0.0, 0.0, 0.0, 0.0, 0.0, 0.0, 1.6953694145844424E9, 0.0, 2023-09-22 09:56:54.584
183.0, 3861.040337209742, 187500.0, 187500.0, 187500.0, 187500.0, 187500.0, 187500.0, 187500.0, 0.044, 0.19, 0.984, 192.0, 0.0, 0.0, 0.0, 0.0, 0.0, 0.0, 0.0, 0.0, 0.0, 1.6953694145844855E9, 0.0, 2023-09-22 09:56:54.584
184.0, 3862.2920348992393, 187500.0, 187500.0, 187500.0, 187500.0, 187500.0, 187500.0, 187500.0, 0.044, 0.19, 0.984, 192.0, 0.0, 0.0, 0.0, 0.0, 0.0, 0.0, 0.0, 0.0, 0.0, 1.6953694145845268E9, 0.0, 2023-09-22 09:56:54.584
185.0, 3895.998465537842, 187500.0, 187500.0, 187500.0, 187500.0, 187500.0, 187500.0, 187500.0, 0.044, 0.19, 0.984, 192.0, 0.0, 0.0, 0.0, 0.0, 0.0, 0.0, 0.0, 0.0, 0.0, 1.6953694145846539E9, 0.0, 2023-09-22 09:56:54.584
186.0, 3913.879861102088, 187500.0, 187500.0, 187500.0, 187500.0, 187500.0, 187500.0, 187500.0, 0.042, 0.184, 0.982, 192.0, 1.0, 80.0, 5.0, 192.0, 30.0, 176.0, 0.0, 0.0, 0.0, 1.6953694145847013E9, 0.0, 2023-09-22 09:56:54.584
187.0, 3922.664096673024, 187500.0, 187500.0, 187500.0, 187500.0, 187500.0, 187500.0, 187500.0, 0.042, 0.184, 0.982, 192.0, 0.0, 0.0, 0.0, 0.0, 0.0, 0.0, 0.0, 0.0, 0.0, 1.6953694145847492E9, 0.0, 2023-09-22 09:56:54.584
188.0, 3921.814730383722, 187500.0, 187500.0, 187500.0, 187500.0, 187500.0, 187500.0, 187500.0, 0.042, 0.184, 0.982, 192.0, 0.0, 0.0, 0.0, 0.0, 0.0, 0.0, 0.0, 0.0, 0.0, 1.6953694145847976E9, 0.0, 2023-09-22 09:56:54.584
189.0, 3888.6894451009566, 187500.0, 187500.0, 187500.0, 187500.0, 187500.0, 187500.0, 187500.0, 0.042, 0.184, 0.982, 192.0, 0.0, 0.0, 0.0, 0.0, 0.0, 0.0, 0.0, 0.0, 0.0, 1.6953694145848465E9, 0.0, 2023-09-22 09:56:54.584
190.0, 3870.3833663920605, 187500.0, 187500.0, 187500.0, 187500.0, 187500.0, 187500.0, 187500.0, 0.042, 0.184, 0.982, 192.0, 0.0, 0.0, 0.0, 0.0, 0.0, 0.0, 0.0, 0.0, 0.0, 1.6953694145848916E9, 0.0, 2023-09-22 09:56:54.584
191.0, 3861.2191511653846, 187500.0, 187500.0, 187500.0, 187500.0, 187500.0, 187500.0, 187500.0, 0.042, 0.184, 0.982, 192.0, 0.0, 0.0, 0.0, 0.0, 0.0, 0.0, 0.0, 0.0, 0.0, 1.6953694145849364E9, 0.0, 2023-09-22 09:56:54.584
192.0, 3861.755593032312, 187500.0, 187500.0, 187500.0, 187500.0, 187500.0, 187500.0, 187500.0, 0.042, 0.184, 0.982, 192.0, 0.0, 0.0, 0.0, 0.0, 0.0, 0.0, 0.0, 0.0, 0.0, 1.6953694145849872E9, 0.0, 2023-09-22 09:56:54.584
193.0, 3895.663189371013, 187500.0, 187500.0, 187500.0, 187500.0, 187500.0, 187500.0, 187500.0, 0.042, 0.184, 0.982, 192.0, 0.0, 0.0, 0.0, 0.0, 0.0, 0.0, 0.0, 0.0, 0.0, 1.6953694145850344E9, 0.0, 2023-09-22 09:56:54.585
194.0, 3914.237489013373, 187500.0, 187500.0, 187500.0, 187500.0, 187500.0, 187500.0, 187500.0, 0.042, 0.184, 0.982, 192.0, 0.0, 0.0, 0.0, 0.0, 0.0, 0.0, 0.0, 0.0, 0.0, 1.6953694145850792E9, 0.0, 2023-09-22 09:56:54.585
195.0, 3923.558166451236, 187500.0, 187500.0, 187500.0, 187500.0, 187500.0, 187500.0, 187500.0, 0.042, 0.184, 0.982, 192.0, 0.0, 0.0, 0.0, 0.0, 0.0, 0.0, 0.0, 0.0, 0.0, 1.6953694145851233E9, 0.0, 2023-09-22 09:56:54.585
196.0, 3921.68061991699, 187500.0, 187500.0, 187500.0, 187500.0, 187500.0, 187500.0, 187500.0, 0.04, 0.186, 0.984, 192.0, 1.0, 64.0, 5.0, 208.0, 30.0, 192.0, 0.0, 0.0, 0.0, 1.695369414585166E9, 0.0, 2023-09-22 09:56:54.585
197.0, 3888.0859480006634, 187500.0, 187500.0, 187500.0, 187500.0, 187500.0, 187500.0, 187500.0, 0.04, 0.186, 0.984, 192.0, 0.0, 0.0, 0.0, 0.0, 0.0, 0.0, 0.0, 0.0, 0.0, 1.695369414585209E9, 0.0, 2023-09-22 09:56:54.585
198.0, 3870.293959414239, 187500.0, 187500.0, 187500.0, 187500.0, 187500.0, 187500.0, 187500.0, 0.04, 0.186, 0.984, 192.0, 0.0, 0.0, 0.0, 0.0, 0.0, 0.0, 0.0, 0.0, 0.0, 1.6953694145852451E9, 0.0, 2023-09-22 09:56:54.585
199.0, 3861.755593032312, 187500.0, 187500.0, 187500.0, 187500.0, 187500.0, 187500.0, 187500.0, 0.04, 0.186, 0.984, 192.0, 0.0, 0.0, 0.0, 0.0, 0.0, 0.0, 0.0, 0.0, 0.0, 1.6953694145852911E9, 0.0, 2023-09-22 09:56:54.585
200.0, 3862.448497110426, 187500.0, 187500.0, 187500.0, 187500.0, 187500.0, 187500.0, 187500.0, 0.04, 0.186, 0.984, 192.0, 0.0, 0.0, 0.0, 0.0, 0.0, 0.0, 0.0, 0.0, 0.0, 1.6953694145854847E9, 0.0, 2023-09-22 09:56:54.585
201.0, 3895.5290789042806, 187500.0, 187500.0, 187500.0, 187500.0, 187500.0, 187500.0, 187500.0, 0.04, 0.186, 0.984, 192.0, 0.0, 0.0, 0.0, 0.0, 0.0, 0.0, 0.0, 0.0, 0.0, 1.695369414585529E9, 0.0, 2023-09-22 09:56:54.585
202.0, 3914.237489013373, 187500.0, 187500.0, 187500.0, 187500.0, 187500.0, 187500.0, 187500.0, 0.04, 0.186, 0.984, 192.0, 0.0, 0.0, 0.0, 0.0, 0.0, 0.0, 0.0, 0.0, 0.0, 1.6953694145855753E9, 0.0, 2023-09-22 09:56:54.585
203.0, 3923.2228902844063, 187500.0, 187500.0, 187500.0, 187500.0, 187500.0, 187500.0, 187500.0, 0.04, 0.186, 0.984, 192.0, 0.0, 0.0, 0.0, 0.0, 0.0, 0.0, 0.0, 0.0, 0.0, 1.6953694145856202E9, 0.0, 2023-09-22 09:56:54.585
204.0, 3922.2394135283726, 187500.0, 187500.0, 187500.0, 187500.0, 187500.0, 187500.0, 187500.0, 0.04, 0.186, 0.984, 192.0, 0.0, 0.0, 0.0, 0.0, 0.0, 0.0, 0.0, 0.0, 0.0, 1.6953694145856717E9, 0.0, 2023-09-22 09:56:54.585
205.0, 3888.6000381231356, 187500.0, 187500.0, 187500.0, 187500.0, 187500.0, 187500.0, 187500.0, 0.04, 0.186, 0.984, 192.0, 0.0, 0.0, 0.0, 0.0, 0.0, 0.0, 0.0, 0.0, 0.0, 1.6953694145857167E9, 0.0, 2023-09-22 09:56:54.585
206.0, 3870.204552436418, 187500.0, 187500.0, 187500.0, 187500.0, 187500.0, 187500.0, 187500.0, 0.034, 0.186, 0.982, 192.0, 1.0, 16.0, 5.0, 208.0, 30.0, 176.0, 0.0, 0.0, 0.0, 1.695369414585768E9, 0.0, 2023-09-22 09:56:54.585
207.0, 3860.8615232540997, 187500.0, 187500.0, 187500.0, 187500.0, 187500.0, 187500.0, 187500.0, 0.034, 0.186, 0.982, 192.0, 0.0, 0.0, 0.0, 0.0, 0.0, 0.0, 0.0, 0.0, 0.0, 1.695369414585821E9, 0.0, 2023-09-22 09:56:54.585
208.0, 3861.9344069879544, 187500.0, 187500.0, 187500.0, 187500.0, 187500.0, 187500.0, 187500.0, 0.034, 0.186, 0.982, 192.0, 0.0, 0.0, 0.0, 0.0, 0.0, 0.0, 0.0, 0.0, 0.0, 1.6953694145858703E9, 0.0, 2023-09-22 09:56:54.585
209.0, 3895.998465537842, 187500.0, 187500.0, 187500.0, 187500.0, 187500.0, 187500.0, 187500.0, 0.034, 0.186, 0.982, 192.0, 0.0, 0.0, 0.0, 0.0, 0.0, 0.0, 0.0, 0.0, 0.0, 1.6953694145859177E9, 0.0, 2023-09-22 09:56:54.585
210.0, 3914.550413435747, 187500.0, 187500.0, 187500.0, 187500.0, 187500.0, 187500.0, 187500.0, 0.034, 0.186, 0.982, 192.0, 0.0, 0.0, 0.0, 0.0, 0.0, 0.0, 0.0, 0.0, 0.0, 1.695369414585961E9, 0.0, 2023-09-22 09:56:54.585
211.0, 3923.044076328764, 187500.0, 187500.0, 187500.0, 187500.0, 187500.0, 187500.0, 187500.0, 0.034, 0.186, 0.982, 192.0, 0.0, 0.0, 0.0, 0.0, 0.0, 0.0, 0.0, 0.0, 0.0, 1.6953694145860124E9, 0.0, 2023-09-22 09:56:54.586
212.0, 3921.68061991699, 187500.0, 187500.0, 187500.0, 187500.0, 187500.0, 187500.0, 187500.0, 0.034, 0.186, 0.982, 192.0, 0.0, 0.0, 0.0, 0.0, 0.0, 0.0, 0.0, 0.0, 0.0, 1.6953694145860603E9, 0.0, 2023-09-22 09:56:54.586
213.0, 3888.3765206785824, 187500.0, 187500.0, 187500.0, 187500.0, 187500.0, 187500.0, 187500.0, 0.034, 0.186, 0.982, 192.0, 0.0, 0.0, 0.0, 0.0, 0.0, 0.0, 0.0, 0.0, 0.0, 1.6953694145861053E9, 0.0, 2023-09-22 09:56:54.586
214.0, 3870.897456514532, 187500.0, 187500.0, 187500.0, 187500.0, 187500.0, 187500.0, 187500.0, 0.034, 0.186, 0.982, 192.0, 0.0, 0.0, 0.0, 0.0, 0.0, 0.0, 0.0, 0.0, 0.0, 1.6953694145861487E9, 0.0, 2023-09-22 09:56:54.586
215.0, 3861.6661860544905, 187500.0, 187500.0, 187500.0, 187500.0, 187500.0, 187500.0, 187500.0, 0.034, 0.186, 0.982, 192.0, 0.0, 0.0, 0.0, 0.0, 0.0, 0.0, 0.0, 0.0, 0.0, 1.6953694145862904E9, 0.0, 2023-09-22 09:56:54.586
216.0, 3862.0014622213203, 187500.0, 187500.0, 187500.0, 187500.0, 187500.0, 187500.0, 187500.0, 0.036000000000000004, 0.19, 0.986, 192.0, 1.0, 32.0, 5.0, 240.0, 30.0, 208.0, 0.0, 0.0, 0.0, 1.6953694145863354E9, 0.0, 2023-09-22 09:56:54.586
217.0, 3896.1549277490294, 187500.0, 187500.0, 187500.0, 187500.0, 187500.0, 187500.0, 187500.0, 0.036000000000000004, 0.19, 0.986, 192.0, 0.0, 0.0, 0.0, 0.0, 0.0, 0.0, 0.0, 0.0, 0.0, 1.6953694145863793E9, 0.0, 2023-09-22 09:56:54.586
218.0, 3914.2151372689177, 187500.0, 187500.0, 187500.0, 187500.0, 187500.0, 187500.0, 187500.0, 0.036000000000000004, 0.19, 0.986, 192.0, 0.0, 0.0, 0.0, 0.0, 0.0, 0.0, 0.0, 0.0, 0.0, 1.6953694145864456E9, 0.0, 2023-09-22 09:56:54.586
219.0, 3923.357000751138, 187500.0, 187500.0, 187500.0, 187500.0, 187500.0, 187500.0, 187500.0, 0.036000000000000004, 0.19, 0.986, 192.0, 0.0, 0.0, 0.0, 0.0, 0.0, 0.0, 0.0, 0.0, 0.0, 1.695369414586494E9, 0.0, 2023-09-22 09:56:54.586
220.0, 3922.2394135283726, 187500.0, 187500.0, 187500.0, 187500.0, 187500.0, 187500.0, 187500.0, 0.036000000000000004, 0.19, 0.986, 192.0, 0.0, 0.0, 0.0, 0.0, 0.0, 0.0, 0.0, 0.0, 0.0, 1.6953694145865364E9, 0.0, 2023-09-22 09:56:54.586
221.0, 3888.465927656404, 187500.0, 187500.0, 187500.0, 187500.0, 187500.0, 187500.0, 187500.0, 0.036000000000000004, 0.19, 0.986, 192.0, 0.0, 0.0, 0.0, 0.0, 0.0, 0.0, 0.0, 0.0, 0.0, 1.6953694145865824E9, 0.0, 2023-09-22 09:56:54.586
222.0, 3870.3386629031497, 187500.0, 187500.0, 187500.0, 187500.0, 187500.0, 187500.0, 187500.0, 0.036000000000000004, 0.19, 0.986, 192.0, 0.0, 0.0, 0.0, 0.0, 0.0, 0.0, 0.0, 0.0, 0.0, 1.6953694145866303E9, 0.0, 2023-09-22 09:56:54.586
223.0, 3861.5991308211246, 187500.0, 187500.0, 187500.0, 187500.0, 187500.0, 187500.0, 187500.0, 0.036000000000000004, 0.19, 0.986, 192.0, 0.0, 0.0, 0.0, 0.0, 0.0, 0.0, 0.0, 0.0, 0.0, 1.6953694145866776E9, 0.0, 2023-09-22 09:56:54.586
224.0, 3862.806125021711, 187500.0, 187500.0, 187500.0, 187500.0, 187500.0, 187500.0, 187500.0, 0.036000000000000004, 0.19, 0.986, 192.0, 0.0, 0.0, 0.0, 0.0, 0.0, 0.0, 0.0, 0.0, 0.0, 1.695369414586722E9, 0.0, 2023-09-22 09:56:54.586
225.0, 3896.6019626381353, 187500.0, 187500.0, 187500.0, 187500.0, 187500.0, 187500.0, 187500.0, 0.036000000000000004, 0.19, 0.986, 192.0, 0.0, 0.0, 0.0, 0.0, 0.0, 0.0, 0.0, 0.0, 0.0, 1.695369414586769E9, 0.0, 2023-09-22 09:56:54.586
226.0, 3915.10920704713, 187500.0, 187500.0, 187500.0, 187500.0, 187500.0, 187500.0, 187500.0, 0.038, 0.186, 0.984, 192.0, 1.0, 48.0, 5.0, 208.0, 30.0, 192.0, 0.0, 0.0, 0.0, 1.6953694145868137E9, 0.0, 2023-09-22 09:56:54.586
227.0, 3923.4687594734146, 187500.0, 187500.0, 187500.0, 187500.0, 187500.0, 187500.0, 187500.0, 0.038, 0.186, 0.984, 192.0, 0.0, 0.0, 0.0, 0.0, 0.0, 0.0, 0.0, 0.0, 0.0, 1.6953694145868607E9, 0.0, 2023-09-22 09:56:54.586
228.0, 3921.8594338726325, 187500.0, 187500.0, 187500.0, 187500.0, 187500.0, 187500.0, 187500.0, 0.038, 0.186, 0.984, 192.0, 0.0, 0.0, 0.0, 0.0, 0.0, 0.0, 0.0, 0.0, 0.0, 1.6953694145869076E9, 0.0, 2023-09-22 09:56:54.586
229.0, 3889.3376456901606, 187500.0, 187500.0, 187500.0, 187500.0, 187500.0, 187500.0, 187500.0, 0.038, 0.186, 0.984, 192.0, 0.0, 0.0, 0.0, 0.0, 0.0, 0.0, 0.0, 0.0, 0.0, 1.6953694145869553E9, 0.0, 2023-09-22 09:56:54.586
230.0, 3871.523305359281, 187500.0, 187500.0, 187500.0, 187500.0, 187500.0, 187500.0, 187500.0, 0.038, 0.186, 0.984, 192.0, 0.0, 0.0, 0.0, 0.0, 0.0, 0.0, 0.0, 0.0, 0.0, 1.695369414586999E9, 0.0, 2023-09-22 09:56:54.586
231.0, 3862.359090132605, 187500.0, 187500.0, 187500.0, 187500.0, 187500.0, 187500.0, 187500.0, 0.038, 0.186, 0.984, 192.0, 0.0, 0.0, 0.0, 0.0, 0.0, 0.0, 0.0, 0.0, 0.0, 1.6953694145871565E9, 0.0, 2023-09-22 09:56:54.587
232.0, 3863.5660843331916, 187500.0, 187500.0, 187500.0, 187500.0, 187500.0, 187500.0, 187500.0, 0.038, 0.186, 0.984, 192.0, 0.0, 0.0, 0.0, 0.0, 0.0, 0.0, 0.0, 0.0, 0.0, 1.6953694145871987E9, 0.0, 2023-09-22 09:56:54.587
233.0, 3896.95959054942, 187500.0, 187500.0, 187500.0, 187500.0, 187500.0, 187500.0, 187500.0, 0.038, 0.186, 0.984, 192.0, 0.0, 0.0, 0.0, 0.0, 0.0, 0.0, 0.0, 0.0, 0.0, 1.6953694145872483E9, 0.0, 2023-09-22 09:56:54.587
234.0, 3915.265669258317, 187500.0, 187500.0, 187500.0, 187500.0, 187500.0, 187500.0, 187500.0, 0.038, 0.186, 0.984, 192.0, 0.0, 0.0, 0.0, 0.0, 0.0, 0.0, 0.0, 0.0, 0.0, 1.6953694145873067E9, 0.0, 2023-09-22 09:56:54.587
235.0, 3924.7204571629118, 187500.0, 187500.0, 187500.0, 187500.0, 187500.0, 187500.0, 187500.0, 0.038, 0.186, 0.984, 192.0, 0.0, 0.0, 0.0, 0.0, 0.0, 0.0, 0.0, 0.0, 0.0, 1.6953694145873528E9, 0.0, 2023-09-22 09:56:54.587
236.0, 3923.3793524955936, 187500.0, 187500.0, 187500.0, 187500.0, 187500.0, 187500.0, 187500.0, 0.036000000000000004, 0.188, 0.986, 192.0, 1.0, 32.0, 5.0, 224.0, 30.0, 208.0, 0.0, 0.0, 0.0, 1.6953694145873923E9, 0.0, 2023-09-22 09:56:54.587
237.0, 3889.3823491790713, 187500.0, 187500.0, 187500.0, 187500.0, 187500.0, 187500.0, 187500.0, 0.036000000000000004, 0.188, 0.986, 192.0, 0.0, 0.0, 0.0, 0.0, 0.0, 0.0, 0.0, 0.0, 0.0, 1.6953694145874617E9, 0.0, 2023-09-22 09:56:54.587
238.0, 3871.3221396591834, 187500.0, 187500.0, 187500.0, 187500.0, 187500.0, 187500.0, 187500.0, 0.036000000000000004, 0.188, 0.986, 192.0, 0.0, 0.0, 0.0, 0.0, 0.0, 0.0, 0.0, 0.0, 0.0, 1.6953694145875003E9, 0.0, 2023-09-22 09:56:54.587
239.0, 3862.2249796658734, 187500.0, 187500.0, 187500.0, 187500.0, 187500.0, 187500.0, 187500.0, 0.036000000000000004, 0.188, 0.986, 192.0, 0.0, 0.0, 0.0, 0.0, 0.0, 0.0, 0.0, 0.0, 0.0, 1.69536941458754E9, 0.0, 2023-09-22 09:56:54.587
240.0, 3863.4766773553706, 187500.0, 187500.0, 187500.0, 187500.0, 187500.0, 187500.0, 187500.0, 0.036000000000000004, 0.188, 0.986, 192.0, 0.0, 0.0, 0.0, 0.0, 0.0, 0.0, 0.0, 0.0, 0.0, 1.6953694145875762E9, 0.0, 2023-09-22 09:56:54.587
241.0, 3896.333741704672, 187500.0, 187500.0, 187500.0, 187500.0, 187500.0, 187500.0, 187500.0, 0.036000000000000004, 0.188, 0.986, 192.0, 0.0, 0.0, 0.0, 0.0, 0.0, 0.0, 0.0, 0.0, 0.0, 1.6953694150596888E9, 0.0, 2023-09-22 09:56:55.059
242.0, 3914.840986113666, 187500.0, 187500.0, 187500.0, 187500.0, 187500.0, 187500.0, 187500.0, 0.036000000000000004, 0.188, 0.986, 192.0, 0.0, 0.0, 0.0, 0.0, 0.0, 0.0, 0.0, 0.0, 0.0, 1.6953694150599222E9, 0.0, 2023-09-22 09:56:55.059
243.0, 3924.519291462814, 187500.0, 187500.0, 187500.0, 187500.0, 187500.0, 187500.0, 187500.0, 0.036000000000000004, 0.188, 0.986, 192.0, 0.0, 0.0, 0.0, 0.0, 0.0, 0.0, 0.0, 0.0, 0.0, 1.6953694150600364E9, 0.0, 2023-09-22 09:56:55.060
244.0, 3922.9323176064872, 187500.0, 187500.0, 187500.0, 187500.0, 187500.0, 187500.0, 187500.0, 0.036000000000000004, 0.188, 0.986, 192.0, 0.0, 0.0, 0.0, 0.0, 0.0, 0.0, 0.0, 0.0, 0.0, 1.69536941506013E9, 0.0, 2023-09-22 09:56:55.060
245.0, 3889.047073012242, 187500.0, 187500.0, 187500.0, 187500.0, 187500.0, 187500.0, 187500.0, 0.036000000000000004, 0.188, 0.986, 192.0, 0.0, 0.0, 0.0, 0.0, 0.0, 0.0, 0.0, 0.0, 0.0, 1.6953694150602086E9, 0.0, 2023-09-22 09:56:55.060
246.0, 3870.7633460478005, 187500.0, 187500.0, 187500.0, 187500.0, 187500.0, 187500.0, 187500.0, 0.032, 0.188, 0.986, 192.0, 1.0, 0.0, 5.0, 224.0, 30.0, 208.0, 0.0, 0.0, 0.0, 1.6953694150607345E9, 0.0, 2023-09-22 09:56:55.060
247.0, 3861.777944776767, 187500.0, 187500.0, 187500.0, 187500.0, 187500.0, 187500.0, 187500.0, 0.032, 0.188, 0.986, 192.0, 0.0, 0.0, 0.0, 0.0, 0.0, 0.0, 0.0, 0.0, 0.0, 1.6953694150608263E9, 0.0, 2023-09-22 09:56:55.060
248.0, 3862.783773277256, 187500.0, 187500.0, 187500.0, 187500.0, 187500.0, 187500.0, 187500.0, 0.032, 0.188, 0.986, 192.0, 0.0, 0.0, 0.0, 0.0, 0.0, 0.0, 0.0, 0.0, 0.0, 1.695369415060888E9, 0.0, 2023-09-22 09:56:55.060
249.0, 3896.4455004269485, 187500.0, 187500.0, 187500.0, 187500.0, 187500.0, 187500.0, 187500.0, 0.032, 0.188, 0.986, 192.0, 0.0, 0.0, 0.0, 0.0, 0.0, 0.0, 0.0, 0.0, 0.0, 1.695369415060956E9, 0.0, 2023-09-22 09:56:55.060
250.0, 3915.198614024951, 187500.0, 187500.0, 187500.0, 187500.0, 187500.0, 187500.0, 187500.0, 0.032, 0.188, 0.986, 192.0, 0.0, 0.0, 0.0, 0.0, 0.0, 0.0, 0.0, 0.0, 0.0, 1.6953694150610085E9, 0.0, 2023-09-22 09:56:55.061
251.0, 3923.982849595887, 187500.0, 187500.0, 187500.0, 187500.0, 187500.0, 187500.0, 187500.0, 0.032, 0.188, 0.986, 192.0, 0.0, 0.0, 0.0, 0.0, 0.0, 0.0, 0.0, 0.0, 0.0, 1.6953694150610535E9, 0.0, 2023-09-22 09:56:55.061
252.0, 3922.708800161934, 187500.0, 187500.0, 187500.0, 187500.0, 187500.0, 187500.0, 187500.0, 0.032, 0.188, 0.986, 192.0, 0.0, 0.0, 0.0, 0.0, 0.0, 0.0, 0.0, 0.0, 0.0, 1.695369415061099E9, 0.0, 2023-09-22 09:56:55.061
253.0, 3889.047073012242, 187500.0, 187500.0, 187500.0, 187500.0, 187500.0, 187500.0, 187500.0, 0.032, 0.188, 0.986, 192.0, 0.0, 0.0, 0.0, 0.0, 0.0, 0.0, 0.0, 0.0, 0.0, 1.695369415061141E9, 0.0, 2023-09-22 09:56:55.061
254.0, 3871.858581526111, 187500.0, 187500.0, 187500.0, 187500.0, 187500.0, 187500.0, 187500.0, 0.032, 0.188, 0.986, 192.0, 0.0, 0.0, 0.0, 0.0, 0.0, 0.0, 0.0, 0.0, 0.0, 1.6953694150611837E9, 0.0, 2023-09-22 09:56:55.061
255.0, 3862.850828510622, 187500.0, 187500.0, 187500.0, 187500.0, 187500.0, 187500.0, 187500.0, 0.032, 0.188, 0.986, 192.0, 0.0, 0.0, 0.0, 0.0, 0.0, 0.0, 0.0, 0.0, 0.0, 1.6953694150612285E9, 0.0, 2023-09-22 09:56:55.061
0.0, 3863.387270377549, 187500.0, 187500.0, 187500.0, 187500.0, 187500.0, 187500.0, 187500.0, 0.038, 0.188, 0.984, 192.0, 1.0, 48.0, 5.0, 224.0, 30.0, 192.0, 0.0, 0.0, 0.0, 1.6953694150612736E9, 0.0, 2023-09-22 09:56:55.061
1.0, 3896.691369615957, 187500.0, 187500.0, 187500.0, 187500.0, 187500.0, 187500.0, 187500.0, 0.038, 0.188, 0.984, 192.0, 0.0, 0.0, 0.0, 0.0, 0.0, 0.0, 0.0, 0.0, 0.0, 1.6953694150613172E9, 0.0, 2023-09-22 09:56:55.061
2.0, 3914.840986113666, 187500.0, 187500.0, 187500.0, 187500.0, 187500.0, 187500.0, 187500.0, 0.038, 0.188, 0.984, 192.0, 0.0, 0.0, 0.0, 0.0, 0.0, 0.0, 0.0, 0.0, 0.0, 1.6953694150613556E9, 0.0, 2023-09-22 09:56:55.061
3.0, 3924.2063670404395, 187500.0, 187500.0, 187500.0, 187500.0, 187500.0, 187500.0, 187500.0, 0.038, 0.188, 0.984, 192.0, 0.0, 0.0, 0.0, 0.0, 0.0, 0.0, 0.0, 0.0, 0.0, 1.695369415061394E9, 0.0, 2023-09-22 09:56:55.061
4.0, 3923.0217245843087, 187500.0, 187500.0, 187500.0, 187500.0, 187500.0, 187500.0, 187500.0, 0.038, 0.188, 0.984, 192.0, 0.0, 0.0, 0.0, 0.0, 0.0, 0.0, 0.0, 0.0, 0.0, 1.6953694150614362E9, 0.0, 2023-09-22 09:56:55.061
5.0, 3889.4717561568928, 187500.0, 187500.0, 187500.0, 187500.0, 187500.0, 187500.0, 187500.0, 0.038, 0.188, 0.984, 192.0, 0.0, 0.0, 0.0, 0.0, 0.0, 0.0, 0.0, 0.0, 0.0, 1.6953694150615375E9, 0.0, 2023-09-22 09:56:55.061
6.0, 3870.852753025622, 187500.0, 187500.0, 187500.0, 187500.0, 187500.0, 187500.0, 187500.0, 0.038, 0.188, 0.984, 192.0, 0.0, 0.0, 0.0, 0.0, 0.0, 0.0, 0.0, 0.0, 0.0, 1.6953694150615802E9, 0.0, 2023-09-22 09:56:55.061
7.0, 3862.2249796658734, 187500.0, 187500.0, 187500.0, 187500.0, 187500.0, 187500.0, 187500.0, 0.038, 0.188, 0.984, 192.0, 0.0, 0.0, 0.0, 0.0, 0.0, 0.0, 0.0, 0.0, 0.0, 1.6953694150616229E9, 0.0, 2023-09-22 09:56:55.061
8.0, 3863.7672500332897, 187500.0, 187500.0, 187500.0, 187500.0, 187500.0, 187500.0, 187500.0, 0.038, 0.188, 0.984, 192.0, 0.0, 0.0, 0.0, 0.0, 0.0, 0.0, 0.0, 0.0, 0.0, 1.695369415061666E9, 0.0, 2023-09-22 09:56:55.061
9.0, 3897.205459738429, 187500.0, 187500.0, 187500.0, 187500.0, 187500.0, 187500.0, 187500.0, 0.038, 0.188, 0.984, 192.0, 0.0, 0.0, 0.0, 0.0, 0.0, 0.0, 0.0, 0.0, 0.0, 1.6953694150617101E9, 0.0, 2023-09-22 09:56:55.061
10.0, 3914.975096580398, 187500.0, 187500.0, 187500.0, 187500.0, 187500.0, 187500.0, 187500.0, 0.04, 0.188, 0.984, 192.0, 1.0, 64.0, 5.0, 224.0, 30.0, 192.0, 0.0, 0.0, 0.0, 1.695369415061755E9, 0.0, 2023-09-22 09:56:55.061
11.0, 3924.318125762716, 187500.0, 187500.0, 187500.0, 187500.0, 187500.0, 187500.0, 187500.0, 0.04, 0.188, 0.984, 192.0, 0.0, 0.0, 0.0, 0.0, 0.0, 0.0, 0.0, 0.0, 0.0, 1.6953694150618007E9, 0.0, 2023-09-22 09:56:55.061
12.0, 3923.200538539951, 187500.0, 187500.0, 187500.0, 187500.0, 187500.0, 187500.0, 187500.0, 0.04, 0.188, 0.984, 192.0, 0.0, 0.0, 0.0, 0.0, 0.0, 0.0, 0.0, 0.0, 0.0, 1.695369415061844E9, 0.0, 2023-09-22 09:56:55.061
13.0, 3889.5611631347138, 187500.0, 187500.0, 187500.0, 187500.0, 187500.0, 187500.0, 187500.0, 0.04, 0.188, 0.984, 192.0, 0.0, 0.0, 0.0, 0.0, 0.0, 0.0, 0.0, 0.0, 0.0, 1.6953694150618865E9, 0.0, 2023-09-22 09:56:55.061
14.0, 3871.4786018703703, 187500.0, 187500.0, 187500.0, 187500.0, 187500.0, 187500.0, 187500.0, 0.04, 0.188, 0.984, 192.0, 0.0, 0.0, 0.0, 0.0, 0.0, 0.0, 0.0, 0.0, 0.0, 1.695369415061928E9, 0.0, 2023-09-22 09:56:55.061
15.0, 3862.2473314103286, 187500.0, 187500.0, 187500.0, 187500.0, 187500.0, 187500.0, 187500.0, 0.04, 0.188, 0.984, 192.0, 0.0, 0.0, 0.0, 0.0, 0.0, 0.0, 0.0, 0.0, 0.0, 1.69536941506197E9, 0.0, 2023-09-22 09:56:55.061
16.0, 3863.007290721809, 187500.0, 187500.0, 187500.0, 187500.0, 187500.0, 187500.0, 187500.0, 0.04, 0.188, 0.984, 192.0, 0.0, 0.0, 0.0, 0.0, 0.0, 0.0, 0.0, 0.0, 0.0, 1.6953694150620108E9, 0.0, 2023-09-22 09:56:55.062
17.0, 3896.6690178715016, 187500.0, 187500.0, 187500.0, 187500.0, 187500.0, 187500.0, 187500.0, 0.04, 0.188, 0.984, 192.0, 0.0, 0.0, 0.0, 0.0, 0.0, 0.0, 0.0, 0.0, 0.0, 1.6953694150620534E9, 0.0, 2023-09-22 09:56:55.062
18.0, 3915.6456489140573, 187500.0, 187500.0, 187500.0, 187500.0, 187500.0, 187500.0, 187500.0, 0.04, 0.188, 0.984, 192.0, 0.0, 0.0, 0.0, 0.0, 0.0, 0.0, 0.0, 0.0, 0.0, 1.6953694150620952E9, 0.0, 2023-09-22 09:56:55.062
19.0, 3924.675753674001, 187500.0, 187500.0, 187500.0, 187500.0, 187500.0, 187500.0, 187500.0, 0.04, 0.188, 0.984, 192.0, 0.0, 0.0, 0.0, 0.0, 0.0, 0.0, 0.0, 0.0, 0.0, 1.695369415062137E9, 0.0, 2023-09-22 09:56:55.062
20.0, 3923.692276917968, 187500.0, 187500.0, 187500.0, 187500.0, 187500.0, 187500.0, 187500.0, 0.036000000000000004, 0.19, 0.988, 192.0, 1.0, 32.0, 5.0, 240.0, 30.0, 224.0, 0.0, 0.0, 0.0, 1.6953694150621798E9, 0.0, 2023-09-22 09:56:55.062
21.0, 3889.9634945349094, 187500.0, 187500.0, 187500.0, 187500.0, 187500.0, 187500.0, 187500.0, 0.036000000000000004, 0.19, 0.988, 192.0, 0.0, 0.0, 0.0, 0.0, 0.0, 0.0, 0.0, 0.0, 0.0, 1.69536941506235E9, 0.0, 2023-09-22 09:56:55.062
22.0, 3871.299787914728, 187500.0, 187500.0, 187500.0, 187500.0, 187500.0, 187500.0, 187500.0, 0.036000000000000004, 0.19, 0.988, 192.0, 0.0, 0.0, 0.0, 0.0, 0.0, 0.0, 0.0, 0.0, 0.0, 1.6953694150623953E9, 0.0, 2023-09-22 09:56:55.062
23.0, 3862.6720145549793, 187500.0, 187500.0, 187500.0, 187500.0, 187500.0, 187500.0, 187500.0, 0.036000000000000004, 0.19, 0.988, 192.0, 0.0, 0.0, 0.0, 0.0, 0.0, 0.0, 0.0, 0.0, 0.0, 1.6953694150624373E9, 0.0, 2023-09-22 09:56:55.062
24.0, 3863.8119535222, 187500.0, 187500.0, 187500.0, 187500.0, 187500.0, 187500.0, 187500.0, 0.036000000000000004, 0.19, 0.988, 192.0, 0.0, 0.0, 0.0, 0.0, 0.0, 0.0, 0.0, 0.0, 0.0, 1.695369415062477E9, 0.0, 2023-09-22 09:56:55.062
25.0, 3897.4289771829817, 187500.0, 187500.0, 187500.0, 187500.0, 187500.0, 187500.0, 187500.0, 0.036000000000000004, 0.19, 0.988, 192.0, 0.0, 0.0, 0.0, 0.0, 0.0, 0.0, 0.0, 0.0, 0.0, 1.695369415062518E9, 0.0, 2023-09-22 09:56:55.062
26.0, 3915.4444832139593, 187500.0, 187500.0, 187500.0, 187500.0, 187500.0, 187500.0, 187500.0, 0.036000000000000004, 0.19, 0.988, 192.0, 0.0, 0.0, 0.0, 0.0, 0.0, 0.0, 0.0, 0.0, 0.0, 1.6953694150625567E9, 0.0, 2023-09-22 09:56:55.062
27.0, 3924.6981054184566, 187500.0, 187500.0, 187500.0, 187500.0, 187500.0, 187500.0, 187500.0, 0.036000000000000004, 0.19, 0.988, 192.0, 0.0, 0.0, 0.0, 0.0, 0.0, 0.0, 0.0, 0.0, 0.0, 1.695369415062596E9, 0.0, 2023-09-22 09:56:55.062
28.0, 3923.781683895789, 187500.0, 187500.0, 187500.0, 187500.0, 187500.0, 187500.0, 187500.0, 0.036000000000000004, 0.19, 0.988, 192.0, 0.0, 0.0, 0.0, 0.0, 0.0, 0.0, 0.0, 0.0, 0.0, 1.6953694150626345E9, 0.0, 2023-09-22 09:56:55.062
29.0, 3890.4999364018367, 187500.0, 187500.0, 187500.0, 187500.0, 187500.0, 187500.0, 187500.0, 0.036000000000000004, 0.19, 0.988, 192.0, 0.0, 0.0, 0.0, 0.0, 0.0, 0.0, 0.0, 0.0, 0.0, 1.6953694150626729E9, 0.0, 2023-09-22 09:56:55.062
30.0, 3872.104450715119, 187500.0, 187500.0, 187500.0, 187500.0, 187500.0, 187500.0, 187500.0, 0.034, 0.19, 0.982, 192.0, 1.0, 16.0, 5.0, 240.0, 30.0, 176.0, 0.0, 0.0, 0.0, 1.6953694150627112E9, 0.0, 2023-09-22 09:56:55.062
31.0, 3862.359090132605, 187500.0, 187500.0, 187500.0, 187500.0, 187500.0, 187500.0, 187500.0, 0.034, 0.19, 0.982, 192.0, 0.0, 0.0, 0.0, 0.0, 0.0, 0.0, 0.0, 0.0, 0.0, 1.695369415062753E9, 0.0, 2023-09-22 09:56:55.062
32.0, 3863.789601777745, 187500.0, 187500.0, 187500.0, 187500.0, 187500.0, 187500.0, 187500.0, 0.034, 0.19, 0.982, 192.0, 0.0, 0.0, 0.0, 0.0, 0.0, 0.0, 0.0, 0.0, 0.0, 1.695369415062792E9, 0.0, 2023-09-22 09:56:55.062
33.0, 3897.518384160803, 187500.0, 187500.0, 187500.0, 187500.0, 187500.0, 187500.0, 187500.0, 0.034, 0.19, 0.982, 192.0, 0.0, 0.0, 0.0, 0.0, 0.0, 0.0, 0.0, 0.0, 0.0, 1.695369415062832E9, 0.0, 2023-09-22 09:56:55.062
34.0, 3915.9809250808867, 187500.0, 187500.0, 187500.0, 187500.0, 187500.0, 187500.0, 187500.0, 0.034, 0.19, 0.982, 192.0, 0.0, 0.0, 0.0, 0.0, 0.0, 0.0, 0.0, 0.0, 0.0, 1.6953694150628707E9, 0.0, 2023-09-22 09:56:55.062
35.0, 3925.167492052018, 187500.0, 187500.0, 187500.0, 187500.0, 187500.0, 187500.0, 187500.0, 0.034, 0.19, 0.982, 192.0, 0.0, 0.0, 0.0, 0.0, 0.0, 0.0, 0.0, 0.0, 0.0, 1.6953694150629091E9, 0.0, 2023-09-22 09:56:55.062
36.0, 3923.580518195691, 187500.0, 187500.0, 187500.0, 187500.0, 187500.0, 187500.0, 187500.0, 0.034, 0.19, 0.982, 192.0, 0.0, 0.0, 0.0, 0.0, 0.0, 0.0, 0.0, 0.0, 0.0, 1.695369415063014E9, 0.0, 2023-09-22 09:56:55.063
37.0, 3889.9858462793645, 187500.0, 187500.0, 187500.0, 187500.0, 187500.0, 187500.0, 187500.0, 0.034, 0.19, 0.982, 192.0, 0.0, 0.0, 0.0, 0.0, 0.0, 0.0, 0.0, 0.0, 0.0, 1.695369415063053E9, 0.0, 2023-09-22 09:56:55.063
38.0, 3872.171505948485, 187500.0, 187500.0, 187500.0, 187500.0, 187500.0, 187500.0, 187500.0, 0.034, 0.19, 0.982, 192.0, 0.0, 0.0, 0.0, 0.0, 0.0, 0.0, 0.0, 0.0, 0.0, 1.6953694150631483E9, 0.0, 2023-09-22 09:56:55.063
39.0, 3863.09669769963, 187500.0, 187500.0, 187500.0, 187500.0, 187500.0, 187500.0, 187500.0, 0.034, 0.19, 0.982, 192.0, 0.0, 0.0, 0.0, 0.0, 0.0, 0.0, 0.0, 0.0, 0.0, 1.6953694150631974E9, 0.0, 2023-09-22 09:56:55.063
40.0, 3864.013119222298, 187500.0, 187500.0, 187500.0, 187500.0, 187500.0, 187500.0, 187500.0, 0.034, 0.186, 0.986, 192.0, 1.0, 16.0, 5.0, 208.0, 30.0, 208.0, 0.0, 0.0, 0.0, 1.6953694150632389E9, 0.0, 2023-09-22 09:56:55.063
41.0, 3897.3395702051607, 187500.0, 187500.0, 187500.0, 187500.0, 187500.0, 187500.0, 187500.0, 0.034, 0.186, 0.986, 192.0, 0.0, 0.0, 0.0, 0.0, 0.0, 0.0, 0.0, 0.0, 0.0, 1.6953694150632827E9, 0.0, 2023-09-22 09:56:55.063
42.0, 3915.8244628697, 187500.0, 187500.0, 187500.0, 187500.0, 187500.0, 187500.0, 187500.0, 0.034, 0.186, 0.986, 192.0, 0.0, 0.0, 0.0, 0.0, 0.0, 0.0, 0.0, 0.0, 0.0, 1.6953694150633273E9, 0.0, 2023-09-22 09:56:55.063
43.0, 3925.0780850741967, 187500.0, 187500.0, 187500.0, 187500.0, 187500.0, 187500.0, 187500.0, 0.034, 0.186, 0.986, 192.0, 0.0, 0.0, 0.0, 0.0, 0.0, 0.0, 0.0, 0.0, 0.0, 1.6953694150633707E9, 0.0, 2023-09-22 09:56:55.063
44.0, 3924.1393118070737, 187500.0, 187500.0, 187500.0, 187500.0, 187500.0, 187500.0, 187500.0, 0.034, 0.186, 0.986, 192.0, 0.0, 0.0, 0.0, 0.0, 0.0, 0.0, 0.0, 0.0, 0.0, 1.6953694150634153E9, 0.0, 2023-09-22 09:56:55.063
45.0, 3890.4775846573816, 187500.0, 187500.0, 187500.0, 187500.0, 187500.0, 187500.0, 187500.0, 0.034, 0.186, 0.986, 192.0, 0.0, 0.0, 0.0, 0.0, 0.0, 0.0, 0.0, 0.0, 0.0, 1.6953694150634568E9, 0.0, 2023-09-22 09:56:55.063
46.0, 3871.9256367594767, 187500.0, 187500.0, 187500.0, 187500.0, 187500.0, 187500.0, 187500.0, 0.034, 0.186, 0.986, 192.0, 0.0, 0.0, 0.0, 0.0, 0.0, 0.0, 0.0, 0.0, 0.0, 1.6953694150635004E9, 0.0, 2023-09-22 09:56:55.063
47.0, 3862.9178837439877, 187500.0, 187500.0, 187500.0, 187500.0, 187500.0, 187500.0, 187500.0, 0.034, 0.186, 0.986, 192.0, 0.0, 0.0, 0.0, 0.0, 0.0, 0.0, 0.0, 0.0, 0.0, 1.6953694150635545E9, 0.0, 2023-09-22 09:56:55.063
48.0, 3864.5048576003146, 187500.0, 187500.0, 187500.0, 187500.0, 187500.0, 187500.0, 187500.0, 0.034, 0.186, 0.986, 192.0, 0.0, 0.0, 0.0, 0.0, 0.0, 0.0, 0.0, 0.0, 0.0, 1.6953694150636113E9, 0.0, 2023-09-22 09:56:55.063
49.0, 3898.01012253882, 187500.0, 187500.0, 187500.0, 187500.0, 187500.0, 187500.0, 187500.0, 0.034, 0.186, 0.986, 192.0, 0.0, 0.0, 0.0, 0.0, 0.0, 0.0, 0.0, 0.0, 0.0, 1.695369415063664E9, 0.0, 2023-09-22 09:56:55.063
50.0, 3916.2714977588057, 187500.0, 187500.0, 187500.0, 187500.0, 187500.0, 187500.0, 187500.0, 0.036000000000000004, 0.18, 0.988, 192.0, 1.0, 32.0, 5.0, 160.0, 30.0, 224.0, 0.0, 0.0, 0.0, 1.6953694150637114E9, 0.0, 2023-09-22 09:56:55.063
51.0, 3924.8322158851884, 187500.0, 187500.0, 187500.0, 187500.0, 187500.0, 187500.0, 187500.0, 0.036000000000000004, 0.18, 0.988, 192.0, 0.0, 0.0, 0.0, 0.0, 0.0, 0.0, 0.0, 0.0, 0.0, 1.6953694150638428E9, 0.0, 2023-09-22 09:56:55.063
52.0, 3923.334649006683, 187500.0, 187500.0, 187500.0, 187500.0, 187500.0, 187500.0, 187500.0, 0.036000000000000004, 0.18, 0.988, 192.0, 0.0, 0.0, 0.0, 0.0, 0.0, 0.0, 0.0, 0.0, 0.0, 1.6953694150638907E9, 0.0, 2023-09-22 09:56:55.063
53.0, 3890.0305497682753, 187500.0, 187500.0, 187500.0, 187500.0, 187500.0, 187500.0, 187500.0, 0.036000000000000004, 0.18, 0.988, 192.0, 0.0, 0.0, 0.0, 0.0, 0.0, 0.0, 0.0, 0.0, 0.0, 1.695369415063932E9, 0.0, 2023-09-22 09:56:55.063
54.0, 3872.976168748876, 187500.0, 187500.0, 187500.0, 187500.0, 187500.0, 187500.0, 187500.0, 0.036000000000000004, 0.18, 0.988, 192.0, 0.0, 0.0, 0.0, 0.0, 0.0, 0.0, 0.0, 0.0, 0.0, 1.695369415063958E9, 0.0, 2023-09-22 09:56:55.063
55.0, 3863.4990290998257, 187500.0, 187500.0, 187500.0, 187500.0, 187500.0, 187500.0, 187500.0, 0.036000000000000004, 0.18, 0.988, 192.0, 0.0, 0.0, 0.0, 0.0, 0.0, 0.0, 0.0, 0.0, 0.0, 1.6953694150639832E9, 0.0, 2023-09-22 09:56:55.063
56.0, 3864.102526200119, 187500.0, 187500.0, 187500.0, 187500.0, 187500.0, 187500.0, 187500.0, 0.036000000000000004, 0.18, 0.988, 192.0, 0.0, 0.0, 0.0, 0.0, 0.0, 0.0, 0.0, 0.0, 0.0, 1.6953694150640085E9, 0.0, 2023-09-22 09:56:55.064
57.0, 3897.6971981164456, 187500.0, 187500.0, 187500.0, 187500.0, 187500.0, 187500.0, 187500.0, 0.036000000000000004, 0.18, 0.988, 192.0, 0.0, 0.0, 0.0, 0.0, 0.0, 0.0, 0.0, 0.0, 0.0, 1.6953694150640333E9, 0.0, 2023-09-22 09:56:55.064
58.0, 3916.58442218118, 187500.0, 187500.0, 187500.0, 187500.0, 187500.0, 187500.0, 187500.0, 0.036000000000000004, 0.18, 0.988, 192.0, 0.0, 0.0, 0.0, 0.0, 0.0, 0.0, 0.0, 0.0, 0.0, 1.6953694150640583E9, 0.0, 2023-09-22 09:56:55.064
59.0, 3925.391009496571, 187500.0, 187500.0, 187500.0, 187500.0, 187500.0, 187500.0, 187500.0, 0.036000000000000004, 0.18, 0.988, 192.0, 0.0, 0.0, 0.0, 0.0, 0.0, 0.0, 0.0, 0.0, 0.0, 1.695369415064083E9, 0.0, 2023-09-22 09:56:55.064
60.0, 3924.0499048292527, 187500.0, 187500.0, 187500.0, 187500.0, 187500.0, 187500.0, 187500.0, 0.036000000000000004, 0.188, 0.984, 192.0, 1.0, 32.0, 5.0, 224.0, 30.0, 192.0, 0.0, 0.0, 0.0, 1.695369415064108E9, 0.0, 2023-09-22 09:56:55.064
61.0, 3890.678750357479, 187500.0, 187500.0, 187500.0, 187500.0, 187500.0, 187500.0, 187500.0, 0.036000000000000004, 0.188, 0.984, 192.0, 0.0, 0.0, 0.0, 0.0, 0.0, 0.0, 0.0, 0.0, 0.0, 1.6953694150641344E9, 0.0, 2023-09-22 09:56:55.064
62.0, 3872.238561181851, 187500.0, 187500.0, 187500.0, 187500.0, 187500.0, 187500.0, 187500.0, 0.036000000000000004, 0.188, 0.984, 192.0, 0.0, 0.0, 0.0, 0.0, 0.0, 0.0, 0.0, 0.0, 0.0, 1.6953694150641592E9, 0.0, 2023-09-22 09:56:55.064
63.0, 3863.297863399728, 187500.0, 187500.0, 187500.0, 187500.0, 187500.0, 187500.0, 187500.0, 0.036000000000000004, 0.188, 0.984, 192.0, 0.0, 0.0, 0.0, 0.0, 0.0, 0.0, 0.0, 0.0, 0.0, 1.6953694150641844E9, 0.0, 2023-09-22 09:56:55.064
64.0, 3864.5719128336805, 187500.0, 187500.0, 187500.0, 187500.0, 187500.0, 187500.0, 187500.0, 0.036000000000000004, 0.188, 0.984, 192.0, 0.0, 0.0, 0.0, 0.0, 0.0, 0.0, 0.0, 0.0, 0.0, 1.6953694150642092E9, 0.0, 2023-09-22 09:56:55.064
65.0, 3897.3842736940715, 187500.0, 187500.0, 187500.0, 187500.0, 187500.0, 187500.0, 187500.0, 0.036000000000000004, 0.188, 0.984, 192.0, 0.0, 0.0, 0.0, 0.0, 0.0, 0.0, 0.0, 0.0, 0.0, 1.6953694150642343E9, 0.0, 2023-09-22 09:56:55.064
66.0, 3915.9809250808867, 187500.0, 187500.0, 187500.0, 187500.0, 187500.0, 187500.0, 187500.0, 0.036000000000000004, 0.188, 0.984, 192.0, 0.0, 0.0, 0.0, 0.0, 0.0, 0.0, 0.0, 0.0, 0.0, 1.6953694150642593E9, 0.0, 2023-09-22 09:56:55.064
67.0, 3925.167492052018, 187500.0, 187500.0, 187500.0, 187500.0, 187500.0, 187500.0, 187500.0, 0.036000000000000004, 0.188, 0.984, 192.0, 0.0, 0.0, 0.0, 0.0, 0.0, 0.0, 0.0, 0.0, 0.0, 1.6953694150643272E9, 0.0, 2023-09-22 09:56:55.064
68.0, 3924.1393118070737, 187500.0, 187500.0, 187500.0, 187500.0, 187500.0, 187500.0, 187500.0, 0.036000000000000004, 0.188, 0.984, 192.0, 0.0, 0.0, 0.0, 0.0, 0.0, 0.0, 0.0, 0.0, 0.0, 1.6953694150643532E9, 0.0, 2023-09-22 09:56:55.064
69.0, 3890.6340468685685, 187500.0, 187500.0, 187500.0, 187500.0, 187500.0, 187500.0, 187500.0, 0.036000000000000004, 0.188, 0.984, 192.0, 0.0, 0.0, 0.0, 0.0, 0.0, 0.0, 0.0, 0.0, 0.0, 1.6953694150643787E9, 0.0, 2023-09-22 09:56:55.064
70.0, 3873.0655757266973, 187500.0, 187500.0, 187500.0, 187500.0, 187500.0, 187500.0, 187500.0, 0.034, 0.184, 0.984, 192.0, 1.0, 16.0, 5.0, 192.0, 30.0, 192.0, 0.0, 0.0, 0.0, 1.6953694150644057E9, 0.0, 2023-09-22 09:56:55.064
71.0, 3863.4096221220047, 187500.0, 187500.0, 187500.0, 187500.0, 187500.0, 187500.0, 187500.0, 0.034, 0.184, 0.984, 192.0, 0.0, 0.0, 0.0, 0.0, 0.0, 0.0, 0.0, 0.0, 0.0, 1.695369415064433E9, 0.0, 2023-09-22 09:56:55.064
72.0, 3865.1530581895186, 187500.0, 187500.0, 187500.0, 187500.0, 187500.0, 187500.0, 187500.0, 0.034, 0.184, 0.984, 192.0, 0.0, 0.0, 0.0, 0.0, 0.0, 0.0, 0.0, 0.0, 0.0, 1.6953694150644581E9, 0.0, 2023-09-22 09:56:55.064
73.0, 3899.10535801713, 187500.0, 187500.0, 187500.0, 187500.0, 187500.0, 187500.0, 187500.0, 0.034, 0.184, 0.984, 192.0, 0.0, 0.0, 0.0, 0.0, 0.0, 0.0, 0.0, 0.0, 0.0, 1.6953694150644832E9, 0.0, 2023-09-22 09:56:55.064
74.0, 3917.3443814926604, 187500.0, 187500.0, 187500.0, 187500.0, 187500.0, 187500.0, 187500.0, 0.034, 0.184, 0.984, 192.0, 0.0, 0.0, 0.0, 0.0, 0.0, 0.0, 0.0, 0.0, 0.0, 1.6953694150645082E9, 0.0, 2023-09-22 09:56:55.064
75.0, 3926.553300208247, 187500.0, 187500.0, 187500.0, 187500.0, 187500.0, 187500.0, 187500.0, 0.034, 0.184, 0.984, 192.0, 0.0, 0.0, 0.0, 0.0, 0.0, 0.0, 0.0, 0.0, 0.0, 1.6953694150645332E9, 0.0, 2023-09-22 09:56:55.064
76.0, 3924.58634669618, 187500.0, 187500.0, 187500.0, 187500.0, 187500.0, 187500.0, 187500.0, 0.034, 0.184, 0.984, 192.0, 0.0, 0.0, 0.0, 0.0, 0.0, 0.0, 0.0, 0.0, 0.0, 1.6953694150645583E9, 0.0, 2023-09-22 09:56:55.064
77.0, 3891.371654435594, 187500.0, 187500.0, 187500.0, 187500.0, 187500.0, 187500.0, 187500.0, 0.034, 0.184, 0.984, 192.0, 0.0, 0.0, 0.0, 0.0, 0.0, 0.0, 0.0, 0.0, 0.0, 1.6953694150645847E9, 0.0, 2023-09-22 09:56:55.064
78.0, 3873.6020175936246, 187500.0, 187500.0, 187500.0, 187500.0, 187500.0, 187500.0, 187500.0, 0.034, 0.184, 0.984, 192.0, 0.0, 0.0, 0.0, 0.0, 0.0, 0.0, 0.0, 0.0, 0.0, 1.6953694150646098E9, 0.0, 2023-09-22 09:56:55.064
79.0, 3864.8624855115995, 187500.0, 187500.0, 187500.0, 187500.0, 187500.0, 187500.0, 187500.0, 0.034, 0.184, 0.984, 192.0, 0.0, 0.0, 0.0, 0.0, 0.0, 0.0, 0.0, 0.0, 0.0, 1.6953694150646348E9, 0.0, 2023-09-22 09:56:55.064
80.0, 3865.1977616784293, 187500.0, 187500.0, 187500.0, 187500.0, 187500.0, 187500.0, 187500.0, 0.038, 0.184, 0.984, 192.0, 1.0, 48.0, 5.0, 192.0, 30.0, 192.0, 0.0, 0.0, 0.0, 1.6953694150646594E9, 0.0, 2023-09-22 09:56:55.064
81.0, 3898.4348056834706, 187500.0, 187500.0, 187500.0, 187500.0, 187500.0, 187500.0, 187500.0, 0.038, 0.184, 0.984, 192.0, 0.0, 0.0, 0.0, 0.0, 0.0, 0.0, 0.0, 0.0, 0.0, 1.6953694150646875E9, 0.0, 2023-09-22 09:56:55.064
82.0, 3917.009105325831, 187500.0, 187500.0, 187500.0, 187500.0, 187500.0, 187500.0, 187500.0, 0.038, 0.184, 0.984, 192.0, 0.0, 0.0, 0.0, 0.0, 0.0, 0.0, 0.0, 0.0, 0.0, 1.6953694150647995E9, 0.0, 2023-09-22 09:56:55.064
83.0, 3926.6650589305236, 187500.0, 187500.0, 187500.0, 187500.0, 187500.0, 187500.0, 187500.0, 0.038, 0.184, 0.984, 192.0, 0.0, 0.0, 0.0, 0.0, 0.0, 0.0, 0.0, 0.0, 0.0, 1.695369415064849E9, 0.0, 2023-09-22 09:56:55.064
84.0, 3925.2792507742947, 187500.0, 187500.0, 187500.0, 187500.0, 187500.0, 187500.0, 187500.0, 0.038, 0.184, 0.984, 192.0, 0.0, 0.0, 0.0, 0.0, 0.0, 0.0, 0.0, 0.0, 0.0, 1.6953694150648928E9, 0.0, 2023-09-22 09:56:55.064
85.0, 3891.684578857968, 187500.0, 187500.0, 187500.0, 187500.0, 187500.0, 187500.0, 187500.0, 0.038, 0.184, 0.984, 192.0, 0.0, 0.0, 0.0, 0.0, 0.0, 0.0, 0.0, 0.0, 0.0, 1.6953694150649347E9, 0.0, 2023-09-22 09:56:55.064
86.0, 3873.6467210825354, 187500.0, 187500.0, 187500.0, 187500.0, 187500.0, 187500.0, 187500.0, 0.038, 0.184, 0.984, 192.0, 0.0, 0.0, 0.0, 0.0, 0.0, 0.0, 0.0, 0.0, 0.0, 1.6953694150649757E9, 0.0, 2023-09-22 09:56:55.064
87.0, 3864.7954302782337, 187500.0, 187500.0, 187500.0, 187500.0, 187500.0, 187500.0, 187500.0, 0.038, 0.184, 0.984, 192.0, 0.0, 0.0, 0.0, 0.0, 0.0, 0.0, 0.0, 0.0, 0.0, 1.6953694150650177E9, 0.0, 2023-09-22 09:56:55.065
88.0, 3865.4883343563483, 187500.0, 187500.0, 187500.0, 187500.0, 187500.0, 187500.0, 187500.0, 0.038, 0.184, 0.984, 192.0, 0.0, 0.0, 0.0, 0.0, 0.0, 0.0, 0.0, 0.0, 0.0, 1.6953694150650585E9, 0.0, 2023-09-22 09:56:55.065
89.0, 3899.10535801713, 187500.0, 187500.0, 187500.0, 187500.0, 187500.0, 187500.0, 187500.0, 0.038, 0.184, 0.986, 192.0, 1.0, 48.0, 5.0, 192.0, 30.0, 208.0, 0.0, 0.0, 0.0, 1.6953694150651016E9, 0.0, 2023-09-22 09:56:55.065
90.0, 3917.836119870677, 187500.0, 187500.0, 187500.0, 187500.0, 187500.0, 187500.0, 187500.0, 0.038, 0.184, 0.986, 192.0, 0.0, 0.0, 0.0, 0.0, 0.0, 0.0, 0.0, 0.0, 0.0, 1.6953694150651453E9, 0.0, 2023-09-22 09:56:55.065
91.0, 3926.2180240414173, 187500.0, 187500.0, 187500.0, 187500.0, 187500.0, 187500.0, 187500.0, 0.038, 0.184, 0.986, 192.0, 0.0, 0.0, 0.0, 0.0, 0.0, 0.0, 0.0, 0.0, 0.0, 1.6953694150651855E9, 0.0, 2023-09-22 09:56:55.065
92.0, 3925.1451403075625, 187500.0, 187500.0, 187500.0, 187500.0, 187500.0, 187500.0, 187500.0, 0.038, 0.184, 0.986, 192.0, 0.0, 0.0, 0.0, 0.0, 0.0, 0.0, 0.0, 0.0, 0.0, 1.6953694150652263E9, 0.0, 2023-09-22 09:56:55.065
93.0, 3891.9975032803422, 187500.0, 187500.0, 187500.0, 187500.0, 187500.0, 187500.0, 187500.0, 0.038, 0.184, 0.986, 192.0, 0.0, 0.0, 0.0, 0.0, 0.0, 0.0, 0.0, 0.0, 0.0, 1.6953694150652664E9, 0.0, 2023-09-22 09:56:55.065
94.0, 3873.713776315901, 187500.0, 187500.0, 187500.0, 187500.0, 187500.0, 187500.0, 187500.0, 0.038, 0.184, 0.986, 192.0, 0.0, 0.0, 0.0, 0.0, 0.0, 0.0, 0.0, 0.0, 0.0, 1.695369415065307E9, 0.0, 2023-09-22 09:56:55.065
95.0, 3864.5272093447697, 187500.0, 187500.0, 187500.0, 187500.0, 187500.0, 187500.0, 187500.0, 0.038, 0.184, 0.986, 192.0, 0.0, 0.0, 0.0, 0.0, 0.0, 0.0, 0.0, 0.0, 0.0, 1.6953694150653481E9, 0.0, 2023-09-22 09:56:55.065
96.0, 3865.1754099339737, 187500.0, 187500.0, 187500.0, 187500.0, 187500.0, 187500.0, 187500.0, 0.038, 0.184, 0.986, 192.0, 0.0, 0.0, 0.0, 0.0, 0.0, 0.0, 0.0, 0.0, 0.0, 1.695369415065389E9, 0.0, 2023-09-22 09:56:55.065
97.0, 3898.904192317032, 187500.0, 187500.0, 187500.0, 187500.0, 187500.0, 187500.0, 187500.0, 0.038, 0.184, 0.986, 192.0, 0.0, 0.0, 0.0, 0.0, 0.0, 0.0, 0.0, 0.0, 0.0, 1.6953694150654297E9, 0.0, 2023-09-22 09:56:55.065
98.0, 3917.389084981571, 187500.0, 187500.0, 187500.0, 187500.0, 187500.0, 187500.0, 187500.0, 0.038, 0.184, 0.986, 192.0, 0.0, 0.0, 0.0, 0.0, 0.0, 0.0, 0.0, 0.0, 0.0, 1.6953694150655284E9, 0.0, 2023-09-22 09:56:55.065
99.0, 3926.7321141638895, 187500.0, 187500.0, 187500.0, 187500.0, 187500.0, 187500.0, 187500.0, 0.036000000000000004, 0.186, 0.986, 192.0, 1.0, 32.0, 5.0, 208.0, 30.0, 208.0, 0.0, 0.0, 0.0, 1.6953694150655708E9, 0.0, 2023-09-22 09:56:55.065
100.0, 3925.167492052018, 187500.0, 187500.0, 187500.0, 187500.0, 187500.0, 187500.0, 187500.0, 0.036000000000000004, 0.186, 0.986, 192.0, 0.0, 0.0, 0.0, 0.0, 0.0, 0.0, 0.0, 0.0, 0.0, 1.695369415065614E9, 0.0, 2023-09-22 09:56:55.065
101.0, 3891.5057649023256, 187500.0, 187500.0, 187500.0, 187500.0, 187500.0, 187500.0, 187500.0, 0.036000000000000004, 0.186, 0.986, 192.0, 0.0, 0.0, 0.0, 0.0, 0.0, 0.0, 0.0, 0.0, 0.0, 1.695369415065654E9, 0.0, 2023-09-22 09:56:55.065
102.0, 3873.713776315901, 187500.0, 187500.0, 187500.0, 187500.0, 187500.0, 187500.0, 187500.0, 0.036000000000000004, 0.186, 0.986, 192.0, 0.0, 0.0, 0.0, 0.0, 0.0, 0.0, 0.0, 0.0, 0.0, 1.695369415065695E9, 0.0, 2023-09-22 09:56:55.065
103.0, 3864.817782022689, 187500.0, 187500.0, 187500.0, 187500.0, 187500.0, 187500.0, 187500.0, 0.036000000000000004, 0.186, 0.986, 192.0, 0.0, 0.0, 0.0, 0.0, 0.0, 0.0, 0.0, 0.0, 0.0, 1.695369415065735E9, 0.0, 2023-09-22 09:56:55.065
104.0, 3866.00242447882, 187500.0, 187500.0, 187500.0, 187500.0, 187500.0, 187500.0, 187500.0, 0.036000000000000004, 0.186, 0.986, 192.0, 0.0, 0.0, 0.0, 0.0, 0.0, 0.0, 0.0, 0.0, 0.0, 1.6953694150657787E9, 0.0, 2023-09-22 09:56:55.065
105.0, 3899.1277097615853, 187500.0, 187500.0, 187500.0, 187500.0, 187500.0, 187500.0, 187500.0, 0.036000000000000004, 0.186, 0.986, 192.0, 0.0, 0.0, 0.0, 0.0, 0.0, 0.0, 0.0, 0.0, 0.0, 1.69536941553965E9, 0.0, 2023-09-22 09:56:55.539
106.0, 3917.009105325831, 187500.0, 187500.0, 187500.0, 187500.0, 187500.0, 187500.0, 187500.0, 0.036000000000000004, 0.186, 0.986, 192.0, 0.0, 0.0, 0.0, 0.0, 0.0, 0.0, 0.0, 0.0, 0.0, 1.6953694155397923E9, 0.0, 2023-09-22 09:56:55.539
107.0, 3925.7933408967665, 187500.0, 187500.0, 187500.0, 187500.0, 187500.0, 187500.0, 187500.0, 0.036000000000000004, 0.186, 0.986, 192.0, 0.0, 0.0, 0.0, 0.0, 0.0, 0.0, 0.0, 0.0, 0.0, 1.695369415539883E9, 0.0, 2023-09-22 09:56:55.539
108.0, 3925.256899029839, 187500.0, 187500.0, 187500.0, 187500.0, 187500.0, 187500.0, 187500.0, 0.036000000000000004, 0.186, 0.986, 192.0, 0.0, 0.0, 0.0, 0.0, 0.0, 0.0, 0.0, 0.0, 0.0, 1.6953694155399227E9, 0.0, 2023-09-22 09:56:55.539
109.0, 3891.3045992022276, 187500.0, 187500.0, 187500.0, 187500.0, 187500.0, 187500.0, 187500.0, 0.038, 0.186, 0.986, 192.0, 1.0, 48.0, 5.0, 208.0, 30.0, 208.0, 0.0, 0.0, 0.0, 1.6953694155399644E9, 0.0, 2023-09-22 09:56:55.539
110.0, 3873.423203637982, 187500.0, 187500.0, 187500.0, 187500.0, 187500.0, 187500.0, 187500.0, 0.038, 0.186, 0.986, 192.0, 0.0, 0.0, 0.0, 0.0, 0.0, 0.0, 0.0, 0.0, 0.0, 1.6953694155400116E9, 0.0, 2023-09-22 09:56:55.540
111.0, 3864.5495610892253, 187500.0, 187500.0, 187500.0, 187500.0, 187500.0, 187500.0, 187500.0, 0.038, 0.186, 0.986, 192.0, 0.0, 0.0, 0.0, 0.0, 0.0, 0.0, 0.0, 0.0, 0.0, 1.695369415540052E9, 0.0, 2023-09-22 09:56:55.540
112.0, 3865.689500056446, 187500.0, 187500.0, 187500.0, 187500.0, 187500.0, 187500.0, 187500.0, 0.038, 0.186, 0.986, 192.0, 0.0, 0.0, 0.0, 0.0, 0.0, 0.0, 0.0, 0.0, 0.0, 1.6953694155400927E9, 0.0, 2023-09-22 09:56:55.540
113.0, 3899.6641516285126, 187500.0, 187500.0, 187500.0, 187500.0, 187500.0, 187500.0, 187500.0, 0.038, 0.186, 0.986, 192.0, 0.0, 0.0, 0.0, 0.0, 0.0, 0.0, 0.0, 0.0, 0.0, 1.6953694155402331E9, 0.0, 2023-09-22 09:56:55.540
114.0, 3918.193747781962, 187500.0, 187500.0, 187500.0, 187500.0, 187500.0, 187500.0, 187500.0, 0.038, 0.186, 0.986, 192.0, 0.0, 0.0, 0.0, 0.0, 0.0, 0.0, 0.0, 0.0, 0.0, 1.6953694155402813E9, 0.0, 2023-09-22 09:56:55.540
115.0, 3927.134445564085, 187500.0, 187500.0, 187500.0, 187500.0, 187500.0, 187500.0, 187500.0, 0.038, 0.186, 0.986, 192.0, 0.0, 0.0, 0.0, 0.0, 0.0, 0.0, 0.0, 0.0, 0.0, 1.6953694155403204E9, 0.0, 2023-09-22 09:56:55.540
116.0, 3925.6592304300348, 187500.0, 187500.0, 187500.0, 187500.0, 187500.0, 187500.0, 187500.0, 0.038, 0.186, 0.986, 192.0, 0.0, 0.0, 0.0, 0.0, 0.0, 0.0, 0.0, 0.0, 0.0, 1.6953694155403593E9, 0.0, 2023-09-22 09:56:55.540
117.0, 3891.729282346879, 187500.0, 187500.0, 187500.0, 187500.0, 187500.0, 187500.0, 187500.0, 0.038, 0.186, 0.986, 192.0, 0.0, 0.0, 0.0, 0.0, 0.0, 0.0, 0.0, 0.0, 0.0, 1.6953694155404017E9, 0.0, 2023-09-22 09:56:55.540
118.0, 3874.0490524827305, 187500.0, 187500.0, 187500.0, 187500.0, 187500.0, 187500.0, 187500.0, 0.038, 0.186, 0.986, 192.0, 0.0, 0.0, 0.0, 0.0, 0.0, 0.0, 0.0, 0.0, 0.0, 1.6953694155404444E9, 0.0, 2023-09-22 09:56:55.540
119.0, 3865.555389589714, 187500.0, 187500.0, 187500.0, 187500.0, 187500.0, 187500.0, 187500.0, 0.038, 0.186, 0.986, 192.0, 1.0, 48.0, 5.0, 208.0, 30.0, 208.0, 0.0, 0.0, 0.0, 1.695369415540491E9, 0.0, 2023-09-22 09:56:55.540
120.0, 3866.270645412284, 187500.0, 187500.0, 187500.0, 187500.0, 187500.0, 187500.0, 187500.0, 0.038, 0.186, 0.986, 192.0, 0.0, 0.0, 0.0, 0.0, 0.0, 0.0, 0.0, 0.0, 0.0, 1.6953694155405388E9, 0.0, 2023-09-22 09:56:55.540
121.0, 3899.3065237172277, 187500.0, 187500.0, 187500.0, 187500.0, 187500.0, 187500.0, 187500.0, 0.038, 0.186, 0.986, 192.0, 0.0, 0.0, 0.0, 0.0, 0.0, 0.0, 0.0, 0.0, 0.0, 1.695369415540583E9, 0.0, 2023-09-22 09:56:55.540
122.0, 3917.5455471927585, 187500.0, 187500.0, 187500.0, 187500.0, 187500.0, 187500.0, 187500.0, 0.038, 0.186, 0.986, 192.0, 0.0, 0.0, 0.0, 0.0, 0.0, 0.0, 0.0, 0.0, 0.0, 1.695369415540624E9, 0.0, 2023-09-22 09:56:55.540
123.0, 3927.134445564085, 187500.0, 187500.0, 187500.0, 187500.0, 187500.0, 187500.0, 187500.0, 0.038, 0.186, 0.986, 192.0, 0.0, 0.0, 0.0, 0.0, 0.0, 0.0, 0.0, 0.0, 0.0, 1.6953694155406644E9, 0.0, 2023-09-22 09:56:55.540
124.0, 3925.882747874588, 187500.0, 187500.0, 187500.0, 187500.0, 187500.0, 187500.0, 187500.0, 0.038, 0.186, 0.986, 192.0, 0.0, 0.0, 0.0, 0.0, 0.0, 0.0, 0.0, 0.0, 0.0, 1.6953694155407088E9, 0.0, 2023-09-22 09:56:55.540
125.0, 3892.5786486361803, 187500.0, 187500.0, 187500.0, 187500.0, 187500.0, 187500.0, 187500.0, 0.038, 0.186, 0.986, 192.0, 0.0, 0.0, 0.0, 0.0, 0.0, 0.0, 0.0, 0.0, 0.0, 1.695369415540754E9, 0.0, 2023-09-22 09:56:55.540
126.0, 3873.803183293722, 187500.0, 187500.0, 187500.0, 187500.0, 187500.0, 187500.0, 187500.0, 0.038, 0.186, 0.986, 192.0, 0.0, 0.0, 0.0, 0.0, 0.0, 0.0, 0.0, 0.0, 0.0, 1.6953694155407982E9, 0.0, 2023-09-22 09:56:55.540
127.0, 3865.108354700608, 187500.0, 187500.0, 187500.0, 187500.0, 187500.0, 187500.0, 187500.0, 0.038, 0.186, 0.986, 192.0, 0.0, 0.0, 0.0, 0.0, 0.0, 0.0, 0.0, 0.0, 0.0, 1.695369415540842E9, 0.0, 2023-09-22 09:56:55.540
128.0, 3866.695328556935, 187500.0, 187500.0, 187500.0, 187500.0, 187500.0, 187500.0, 187500.0, 0.038, 0.186, 0.986, 192.0, 0.0, 0.0, 0.0, 0.0, 0.0, 0.0, 0.0, 0.0, 0.0, 1.6953694155409603E9, 0.0, 2023-09-22 09:56:55.540
129.0, 3900.133538262074, 187500.0, 187500.0, 187500.0, 187500.0, 187500.0, 187500.0, 187500.0, 0.038, 0.19, 0.982, 192.0, 1.0, 48.0, 5.0, 240.0, 30.0, 176.0, 0.0, 0.0, 0.0, 1.695369415541022E9, 0.0, 2023-09-22 09:56:55.541
130.0, 3918.39491348206, 187500.0, 187500.0, 187500.0, 187500.0, 187500.0, 187500.0, 187500.0, 0.038, 0.19, 0.982, 192.0, 0.0, 0.0, 0.0, 0.0, 0.0, 0.0, 0.0, 0.0, 0.0, 1.6953694155410733E9, 0.0, 2023-09-22 09:56:55.541
131.0, 3927.7379426643784, 187500.0, 187500.0, 187500.0, 187500.0, 187500.0, 187500.0, 187500.0, 0.038, 0.19, 0.982, 192.0, 0.0, 0.0, 0.0, 0.0, 0.0, 0.0, 0.0, 0.0, 0.0, 1.6953694155411365E9, 0.0, 2023-09-22 09:56:55.541
132.0, 3926.0839135746855, 187500.0, 187500.0, 187500.0, 187500.0, 187500.0, 187500.0, 187500.0, 0.038, 0.19, 0.982, 192.0, 0.0, 0.0, 0.0, 0.0, 0.0, 0.0, 0.0, 0.0, 0.0, 1.6953694155411828E9, 0.0, 2023-09-22 09:56:55.541
133.0, 3892.6680556140013, 187500.0, 187500.0, 187500.0, 187500.0, 187500.0, 187500.0, 187500.0, 0.038, 0.19, 0.982, 192.0, 0.0, 0.0, 0.0, 0.0, 0.0, 0.0, 0.0, 0.0, 0.0, 1.695369415541232E9, 0.0, 2023-09-22 09:56:55.541
134.0, 3874.6972530719345, 187500.0, 187500.0, 187500.0, 187500.0, 187500.0, 187500.0, 187500.0, 0.038, 0.19, 0.982, 192.0, 0.0, 0.0, 0.0, 0.0, 0.0, 0.0, 0.0, 0.0, 0.0, 1.6953694155412831E9, 0.0, 2023-09-22 09:56:55.541
135.0, 3865.3765756340717, 187500.0, 187500.0, 187500.0, 187500.0, 187500.0, 187500.0, 187500.0, 0.038, 0.19, 0.982, 192.0, 0.0, 0.0, 0.0, 0.0, 0.0, 0.0, 0.0, 0.0, 0.0, 1.695369415541342E9, 0.0, 2023-09-22 09:56:55.541
136.0, 3866.2482936678284, 187500.0, 187500.0, 187500.0, 187500.0, 187500.0, 187500.0, 187500.0, 0.038, 0.19, 0.982, 192.0, 0.0, 0.0, 0.0, 0.0, 0.0, 0.0, 0.0, 0.0, 0.0, 1.6953694155413923E9, 0.0, 2023-09-22 09:56:55.541
137.0, 3899.887669073066, 187500.0, 187500.0, 187500.0, 187500.0, 187500.0, 187500.0, 187500.0, 0.038, 0.19, 0.982, 192.0, 0.0, 0.0, 0.0, 0.0, 0.0, 0.0, 0.0, 0.0, 0.0, 1.695369415541446E9, 0.0, 2023-09-22 09:56:55.541
138.0, 3918.5066722043366, 187500.0, 187500.0, 187500.0, 187500.0, 187500.0, 187500.0, 187500.0, 0.038, 0.19, 0.982, 192.0, 0.0, 0.0, 0.0, 0.0, 0.0, 0.0, 0.0, 0.0, 0.0, 1.6953694155415063E9, 0.0, 2023-09-22 09:56:55.541
139.0, 3927.6261839421018, 187500.0, 187500.0, 187500.0, 187500.0, 187500.0, 187500.0, 187500.0, 0.04, 0.192, 0.984, 192.0, 1.0, 64.0, 6.0, 0.0, 30.0, 192.0, 0.0, 0.0, 0.0, 1.6953694155415533E9, 0.0, 2023-09-22 09:56:55.541
140.0, 3926.0615618302304, 187500.0, 187500.0, 187500.0, 187500.0, 187500.0, 187500.0, 187500.0, 0.04, 0.192, 0.984, 192.0, 0.0, 0.0, 0.0, 0.0, 0.0, 0.0, 0.0, 0.0, 0.0, 1.6953694155416028E9, 0.0, 2023-09-22 09:56:55.541
141.0, 3892.399834680538, 187500.0, 187500.0, 187500.0, 187500.0, 187500.0, 187500.0, 187500.0, 0.04, 0.192, 0.984, 192.0, 0.0, 0.0, 0.0, 0.0, 0.0, 0.0, 0.0, 0.0, 0.0, 1.695369415541649E9, 0.0, 2023-09-22 09:56:55.541
142.0, 3874.518439116292, 187500.0, 187500.0, 187500.0, 187500.0, 187500.0, 187500.0, 187500.0, 0.04, 0.192, 0.984, 192.0, 0.0, 0.0, 0.0, 0.0, 0.0, 0.0, 0.0, 0.0, 0.0, 1.6953694155417035E9, 0.0, 2023-09-22 09:56:55.541
143.0, 3865.8906657565435, 187500.0, 187500.0, 187500.0, 187500.0, 187500.0, 187500.0, 187500.0, 0.04, 0.192, 0.984, 192.0, 0.0, 0.0, 0.0, 0.0, 0.0, 0.0, 0.0, 0.0, 0.0, 1.6953694155419729E9, 0.0, 2023-09-22 09:56:55.541
144.0, 3867.1423634460407, 187500.0, 187500.0, 187500.0, 187500.0, 187500.0, 187500.0, 187500.0, 0.04, 0.192, 0.984, 192.0, 0.0, 0.0, 0.0, 0.0, 0.0, 0.0, 0.0, 0.0, 0.0, 1.695369415542024E9, 0.0, 2023-09-22 09:56:55.542
145.0, 3900.3347039621717, 187500.0, 187500.0, 187500.0, 187500.0, 187500.0, 187500.0, 187500.0, 0.04, 0.192, 0.984, 192.0, 0.0, 0.0, 0.0, 0.0, 0.0, 0.0, 0.0, 0.0, 0.0, 1.695369415542071E9, 0.0, 2023-09-22 09:56:55.542
146.0, 3918.037285570775, 187500.0, 187500.0, 187500.0, 187500.0, 187500.0, 187500.0, 187500.0, 0.04, 0.192, 0.984, 192.0, 0.0, 0.0, 0.0, 0.0, 0.0, 0.0, 0.0, 0.0, 0.0, 1.6953694155421228E9, 0.0, 2023-09-22 09:56:55.542
147.0, 3927.5367769642803, 187500.0, 187500.0, 187500.0, 187500.0, 187500.0, 187500.0, 187500.0, 0.04, 0.192, 0.984, 192.0, 0.0, 0.0, 0.0, 0.0, 0.0, 0.0, 0.0, 0.0, 0.0, 1.6953694155421653E9, 0.0, 2023-09-22 09:56:55.542
148.0, 3926.5085967193363, 187500.0, 187500.0, 187500.0, 187500.0, 187500.0, 187500.0, 187500.0, 0.04, 0.192, 0.984, 192.0, 0.0, 0.0, 0.0, 0.0, 0.0, 0.0, 0.0, 0.0, 0.0, 1.6953694155422077E9, 0.0, 2023-09-22 09:56:55.542
149.0, 3892.9362765474652, 187500.0, 187500.0, 187500.0, 187500.0, 187500.0, 187500.0, 187500.0, 0.042, 0.188, 0.988, 192.0, 1.0, 80.0, 5.0, 224.0, 30.0, 224.0, 0.0, 0.0, 0.0, 1.6953694155422533E9, 0.0, 2023-09-22 09:56:55.542
150.0, 3874.361976905105, 187500.0, 187500.0, 187500.0, 187500.0, 187500.0, 187500.0, 187500.0, 0.042, 0.188, 0.988, 192.0, 0.0, 0.0, 0.0, 0.0, 0.0, 0.0, 0.0, 0.0, 0.0, 1.6953694155423512E9, 0.0, 2023-09-22 09:56:55.542
151.0, 3865.689500056446, 187500.0, 187500.0, 187500.0, 187500.0, 187500.0, 187500.0, 187500.0, 0.042, 0.188, 0.988, 192.0, 0.0, 0.0, 0.0, 0.0, 0.0, 0.0, 0.0, 0.0, 0.0, 1.6953694155423927E9, 0.0, 2023-09-22 09:56:55.542
152.0, 3866.6059215791133, 187500.0, 187500.0, 187500.0, 187500.0, 187500.0, 187500.0, 187500.0, 0.042, 0.188, 0.988, 192.0, 0.0, 0.0, 0.0, 0.0, 0.0, 0.0, 0.0, 0.0, 0.0, 1.6953694155424385E9, 0.0, 2023-09-22 09:56:55.542
153.0, 3900.3347039621717, 187500.0, 187500.0, 187500.0, 187500.0, 187500.0, 187500.0, 187500.0, 0.042, 0.188, 0.988, 192.0, 0.0, 0.0, 0.0, 0.0, 0.0, 0.0, 0.0, 0.0, 0.0, 1.695369415542495E9, 0.0, 2023-09-22 09:56:55.542
154.0, 3918.618430926613, 187500.0, 187500.0, 187500.0, 187500.0, 187500.0, 187500.0, 187500.0, 0.042, 0.188, 0.988, 192.0, 0.0, 0.0, 0.0, 0.0, 0.0, 0.0, 0.0, 0.0, 0.0, 1.6953694155425448E9, 0.0, 2023-09-22 09:56:55.542
155.0, 3927.268556030817, 187500.0, 187500.0, 187500.0, 187500.0, 187500.0, 187500.0, 187500.0, 0.042, 0.188, 0.988, 192.0, 0.0, 0.0, 0.0, 0.0, 0.0, 0.0, 0.0, 0.0, 0.0, 1.6953694155425923E9, 0.0, 2023-09-22 09:56:55.542
156.0, 3926.285079274783, 187500.0, 187500.0, 187500.0, 187500.0, 187500.0, 187500.0, 187500.0, 0.042, 0.188, 0.988, 192.0, 0.0, 0.0, 0.0, 0.0, 0.0, 0.0, 0.0, 0.0, 0.0, 1.6953694155426364E9, 0.0, 2023-09-22 09:56:55.542
157.0, 3892.8021660807335, 187500.0, 187500.0, 187500.0, 187500.0, 187500.0, 187500.0, 187500.0, 0.042, 0.188, 0.988, 192.0, 0.0, 0.0, 0.0, 0.0, 0.0, 0.0, 0.0, 0.0, 0.0, 1.6953694155426805E9, 0.0, 2023-09-22 09:56:55.542
158.0, 3874.741956560845, 187500.0, 187500.0, 187500.0, 187500.0, 187500.0, 187500.0, 187500.0, 0.042, 0.188, 0.988, 192.0, 0.0, 0.0, 0.0, 0.0, 0.0, 0.0, 0.0, 0.0, 0.0, 1.6953694155427256E9, 0.0, 2023-09-22 09:56:55.542
159.0, 3866.0918314566416, 187500.0, 187500.0, 187500.0, 187500.0, 187500.0, 187500.0, 187500.0, 0.044, 0.182, 0.99, 192.0, 1.0, 96.0, 5.0, 176.0, 30.0, 240.0, 0.0, 0.0, 0.0, 1.6953694155429256E9, 0.0, 2023-09-22 09:56:55.542
160.0, 3867.030604723764, 187500.0, 187500.0, 187500.0, 187500.0, 187500.0, 187500.0, 187500.0, 0.044, 0.182, 0.99, 192.0, 0.0, 0.0, 0.0, 0.0, 0.0, 0.0, 0.0, 0.0, 0.0, 1.6953694155429895E9, 0.0, 2023-09-22 09:56:55.542
161.0, 3900.178241750985, 187500.0, 187500.0, 187500.0, 187500.0, 187500.0, 187500.0, 187500.0, 0.044, 0.182, 0.99, 192.0, 0.0, 0.0, 0.0, 0.0, 0.0, 0.0, 0.0, 0.0, 0.0, 1.695369415543043E9, 0.0, 2023-09-22 09:56:55.543
162.0, 3918.171396037507, 187500.0, 187500.0, 187500.0, 187500.0, 187500.0, 187500.0, 187500.0, 0.044, 0.182, 0.99, 192.0, 0.0, 0.0, 0.0, 0.0, 0.0, 0.0, 0.0, 0.0, 0.0, 1.6953694155430887E9, 0.0, 2023-09-22 09:56:55.543
163.0, 3927.5367769642803, 187500.0, 187500.0, 187500.0, 187500.0, 187500.0, 187500.0, 187500.0, 0.044, 0.182, 0.99, 192.0, 0.0, 0.0, 0.0, 0.0, 0.0, 0.0, 0.0, 0.0, 0.0, 1.6953694155431328E9, 0.0, 2023-09-22 09:56:55.543
164.0, 3926.285079274783, 187500.0, 187500.0, 187500.0, 187500.0, 187500.0, 187500.0, 187500.0, 0.044, 0.182, 0.99, 192.0, 0.0, 0.0, 0.0, 0.0, 0.0, 0.0, 0.0, 0.0, 0.0, 1.695369415543177E9, 0.0, 2023-09-22 09:56:55.543
165.0, 3892.8692213140994, 187500.0, 187500.0, 187500.0, 187500.0, 187500.0, 187500.0, 187500.0, 0.044, 0.182, 0.99, 192.0, 0.0, 0.0, 0.0, 0.0, 0.0, 0.0, 0.0, 0.0, 0.0, 1.6953694155432224E9, 0.0, 2023-09-22 09:56:55.543
166.0, 3874.518439116292, 187500.0, 187500.0, 187500.0, 187500.0, 187500.0, 187500.0, 187500.0, 0.044, 0.182, 0.99, 192.0, 0.0, 0.0, 0.0, 0.0, 0.0, 0.0, 0.0, 0.0, 0.0, 1.695369415543284E9, 0.0, 2023-09-22 09:56:55.543
167.0, 3865.4883343563483, 187500.0, 187500.0, 187500.0, 187500.0, 187500.0, 187500.0, 187500.0, 0.044, 0.182, 0.99, 192.0, 0.0, 0.0, 0.0, 0.0, 0.0, 0.0, 0.0, 0.0, 0.0, 1.6953694155433383E9, 0.0, 2023-09-22 09:56:55.543
168.0, 3866.3824041345606, 187500.0, 187500.0, 187500.0, 187500.0, 187500.0, 187500.0, 187500.0, 0.044, 0.182, 0.99, 192.0, 0.0, 0.0, 0.0, 0.0, 0.0, 0.0, 0.0, 0.0, 0.0, 1.6953694155433824E9, 0.0, 2023-09-22 09:56:55.543
169.0, 3899.9547243064317, 187500.0, 187500.0, 187500.0, 187500.0, 187500.0, 187500.0, 187500.0, 0.046, 0.186, 0.99, 192.0, 1.0, 112.0, 5.0, 208.0, 30.0, 240.0, 0.0, 0.0, 0.0, 1.6953694155434265E9, 0.0, 2023-09-22 09:56:55.543
170.0, 3918.3725617376044, 187500.0, 187500.0, 187500.0, 187500.0, 187500.0, 187500.0, 187500.0, 0.046, 0.186, 0.99, 192.0, 0.0, 0.0, 0.0, 0.0, 0.0, 0.0, 0.0, 0.0, 0.0, 1.6953694155435042E9, 0.0, 2023-09-22 09:56:55.543
171.0, 3927.0897420751744, 187500.0, 187500.0, 187500.0, 187500.0, 187500.0, 187500.0, 187500.0, 0.046, 0.186, 0.99, 192.0, 0.0, 0.0, 0.0, 0.0, 0.0, 0.0, 0.0, 0.0, 0.0, 1.6953694155435653E9, 0.0, 2023-09-22 09:56:55.543
172.0, 3925.5027682188475, 187500.0, 187500.0, 187500.0, 187500.0, 187500.0, 187500.0, 187500.0, 0.046, 0.186, 0.99, 192.0, 0.0, 0.0, 0.0, 0.0, 0.0, 0.0, 0.0, 0.0, 0.0, 1.6953694155436108E9, 0.0, 2023-09-22 09:56:55.543
173.0, 3891.8633928136105, 187500.0, 187500.0, 187500.0, 187500.0, 187500.0, 187500.0, 187500.0, 0.046, 0.186, 0.99, 192.0, 0.0, 0.0, 0.0, 0.0, 0.0, 0.0, 0.0, 0.0, 0.0, 1.6953694155436547E9, 0.0, 2023-09-22 09:56:55.543
174.0, 3873.9372937604544, 187500.0, 187500.0, 187500.0, 187500.0, 187500.0, 187500.0, 187500.0, 0.046, 0.186, 0.99, 192.0, 0.0, 0.0, 0.0, 0.0, 0.0, 0.0, 0.0, 0.0, 0.0, 1.6953694155438597E9, 0.0, 2023-09-22 09:56:55.543
175.0, 3864.7954302782337, 187500.0, 187500.0, 187500.0, 187500.0, 187500.0, 187500.0, 187500.0, 0.046, 0.186, 0.99, 192.0, 0.0, 0.0, 0.0, 0.0, 0.0, 0.0, 0.0, 0.0, 0.0, 1.6953694155439072E9, 0.0, 2023-09-22 09:56:55.543
176.0, 3865.9577209899094, 187500.0, 187500.0, 187500.0, 187500.0, 187500.0, 187500.0, 187500.0, 0.046, 0.186, 0.99, 192.0, 0.0, 0.0, 0.0, 0.0, 0.0, 0.0, 0.0, 0.0, 0.0, 1.695369415543952E9, 0.0, 2023-09-22 09:56:55.543
177.0, 3899.3959306950487, 187500.0, 187500.0, 187500.0, 187500.0, 187500.0, 187500.0, 187500.0, 0.046, 0.186, 0.99, 192.0, 0.0, 0.0, 0.0, 0.0, 0.0, 0.0, 0.0, 0.0, 0.0, 1.6953694155440009E9, 0.0, 2023-09-22 09:56:55.544
178.0, 3917.9255268484985, 187500.0, 187500.0, 187500.0, 187500.0, 187500.0, 187500.0, 187500.0, 0.046, 0.186, 0.99, 192.0, 0.0, 0.0, 0.0, 0.0, 0.0, 0.0, 0.0, 0.0, 0.0, 1.6953694155440516E9, 0.0, 2023-09-22 09:56:55.544
179.0, 3927.4026664975486, 187500.0, 187500.0, 187500.0, 187500.0, 187500.0, 187500.0, 187500.0, 0.044, 0.186, 0.988, 192.0, 1.0, 96.0, 5.0, 208.0, 30.0, 224.0, 0.0, 0.0, 0.0, 1.6953694155441074E9, 0.0, 2023-09-22 09:56:55.544
180.0, 3926.1509688080514, 187500.0, 187500.0, 187500.0, 187500.0, 187500.0, 187500.0, 187500.0, 0.044, 0.186, 0.988, 192.0, 0.0, 0.0, 0.0, 0.0, 0.0, 0.0, 0.0, 0.0, 0.0, 1.695369415544156E9, 0.0, 2023-09-22 09:56:55.544
181.0, 3892.5786486361803, 187500.0, 187500.0, 187500.0, 187500.0, 187500.0, 187500.0, 187500.0, 0.044, 0.186, 0.988, 192.0, 0.0, 0.0, 0.0, 0.0, 0.0, 0.0, 0.0, 0.0, 0.0, 1.6953694155442016E9, 0.0, 2023-09-22 09:56:55.544
182.0, 3874.451383882926, 187500.0, 187500.0, 187500.0, 187500.0, 187500.0, 187500.0, 187500.0, 0.044, 0.186, 0.988, 192.0, 0.0, 0.0, 0.0, 0.0, 0.0, 0.0, 0.0, 0.0, 0.0, 1.6953694155442576E9, 0.0, 2023-09-22 09:56:55.544
183.0, 3865.4659826118927, 187500.0, 187500.0, 187500.0, 187500.0, 187500.0, 187500.0, 187500.0, 0.044, 0.186, 0.988, 192.0, 0.0, 0.0, 0.0, 0.0, 0.0, 0.0, 0.0, 0.0, 0.0, 1.6953694155443091E9, 0.0, 2023-09-22 09:56:55.544
184.0, 3866.7400320458455, 187500.0, 187500.0, 187500.0, 187500.0, 187500.0, 187500.0, 187500.0, 0.044, 0.186, 0.988, 192.0, 0.0, 0.0, 0.0, 0.0, 0.0, 0.0, 0.0, 0.0, 0.0, 1.695369415544355E9, 0.0, 2023-09-22 09:56:55.544
185.0, 3900.0664830287083, 187500.0, 187500.0, 187500.0, 187500.0, 187500.0, 187500.0, 187500.0, 0.044, 0.186, 0.988, 192.0, 0.0, 0.0, 0.0, 0.0, 0.0, 0.0, 0.0, 0.0, 0.0, 1.695369415544402E9, 0.0, 2023-09-22 09:56:55.544
186.0, 3918.2384512708727, 187500.0, 187500.0, 187500.0, 187500.0, 187500.0, 187500.0, 187500.0, 0.044, 0.186, 0.988, 192.0, 0.0, 0.0, 0.0, 0.0, 0.0, 0.0, 0.0, 0.0, 0.0, 1.6953694155444627E9, 0.0, 2023-09-22 09:56:55.544
187.0, 3927.0897420751744, 187500.0, 187500.0, 187500.0, 187500.0, 187500.0, 187500.0, 187500.0, 0.044, 0.186, 0.988, 192.0, 0.0, 0.0, 0.0, 0.0, 0.0, 0.0, 0.0, 0.0, 0.0, 1.6953694155445185E9, 0.0, 2023-09-22 09:56:55.544
188.0, 3925.614526941124, 187500.0, 187500.0, 187500.0, 187500.0, 187500.0, 187500.0, 187500.0, 0.044, 0.186, 0.988, 192.0, 0.0, 0.0, 0.0, 0.0, 0.0, 0.0, 0.0, 0.0, 0.0, 1.6953694155445633E9, 0.0, 2023-09-22 09:56:55.544
189.0, 3892.131613747074, 187500.0, 187500.0, 187500.0, 187500.0, 187500.0, 187500.0, 187500.0, 0.042, 0.186, 0.988, 192.0, 1.0, 80.0, 5.0, 208.0, 30.0, 224.0, 0.0, 0.0, 0.0, 1.6953694155448012E9, 0.0, 2023-09-22 09:56:55.544
190.0, 3873.5796658491695, 187500.0, 187500.0, 187500.0, 187500.0, 187500.0, 187500.0, 187500.0, 0.042, 0.186, 0.988, 192.0, 0.0, 0.0, 0.0, 0.0, 0.0, 0.0, 0.0, 0.0, 0.0, 1.6953694155448654E9, 0.0, 2023-09-22 09:56:55.544
191.0, 3864.5942645781356, 187500.0, 187500.0, 187500.0, 187500.0, 187500.0, 187500.0, 187500.0, 0.042, 0.186, 0.988, 192.0, 0.0, 0.0, 0.0, 0.0, 0.0, 0.0, 0.0, 0.0, 0.0, 1.6953694155449178E9, 0.0, 2023-09-22 09:56:55.544
192.0, 3865.8236105231776, 187500.0, 187500.0, 187500.0, 187500.0, 187500.0, 187500.0, 187500.0, 0.042, 0.186, 0.988, 192.0, 0.0, 0.0, 0.0, 0.0, 0.0, 0.0, 0.0, 0.0, 0.0, 1.6953694155449784E9, 0.0, 2023-09-22 09:56:55.544
193.0, 3899.172413250496, 187500.0, 187500.0, 187500.0, 187500.0, 187500.0, 187500.0, 187500.0, 0.042, 0.186, 0.988, 192.0, 0.0, 0.0, 0.0, 0.0, 0.0, 0.0, 0.0, 0.0, 0.0, 1.6953694155450363E9, 0.0, 2023-09-22 09:56:55.545
194.0, 3917.724361148401, 187500.0, 187500.0, 187500.0, 187500.0, 187500.0, 187500.0, 187500.0, 0.042, 0.186, 0.988, 192.0, 0.0, 0.0, 0.0, 0.0, 0.0, 0.0, 0.0, 0.0, 0.0, 1.6953694155450833E9, 0.0, 2023-09-22 09:56:55.545
195.0, 3927.1120938196295, 187500.0, 187500.0, 187500.0, 187500.0, 187500.0, 187500.0, 187500.0, 0.042, 0.186, 0.988, 192.0, 0.0, 0.0, 0.0, 0.0, 0.0, 0.0, 0.0, 0.0, 0.0, 1.695369415545144E9, 0.0, 2023-09-22 09:56:55.545
196.0, 3925.391009496571, 187500.0, 187500.0, 187500.0, 187500.0, 187500.0, 187500.0, 187500.0, 0.042, 0.186, 0.988, 192.0, 0.0, 0.0, 0.0, 0.0, 0.0, 0.0, 0.0, 0.0, 0.0, 1.6953694155452025E9, 0.0, 2023-09-22 09:56:55.545
197.0, 3892.064558513708, 187500.0, 187500.0, 187500.0, 187500.0, 187500.0, 187500.0, 187500.0, 0.042, 0.186, 0.988, 192.0, 0.0, 0.0, 0.0, 0.0, 0.0, 0.0, 0.0, 0.0, 0.0, 1.6953694155452626E9, 0.0, 2023-09-22 09:56:55.545
198.0, 3873.870238527088, 187500.0, 187500.0, 187500.0, 187500.0, 187500.0, 187500.0, 187500.0, 0.042, 0.186, 0.988, 192.0, 0.0, 0.0, 0.0, 0.0, 0.0, 0.0, 0.0, 0.0, 0.0, 1.6953694155453203E9, 0.0, 2023-09-22 09:56:55.545
199.0, 3865.667148311991, 187500.0, 187500.0, 187500.0, 187500.0, 187500.0, 187500.0, 187500.0, 0.044, 0.19, 0.984, 192.0, 1.0, 96.0, 5.0, 240.0, 30.0, 192.0, 0.0, 0.0, 0.0, 1.695369415545369E9, 0.0, 2023-09-22 09:56:55.545
200.0, 3866.650625068024, 187500.0, 187500.0, 187500.0, 187500.0, 187500.0, 187500.0, 187500.0, 0.044, 0.19, 0.984, 192.0, 0.0, 0.0, 0.0, 0.0, 0.0, 0.0, 0.0, 0.0, 0.0, 1.695369415545414E9, 0.0, 2023-09-22 09:56:55.545
201.0, 3899.9547243064317, 187500.0, 187500.0, 187500.0, 187500.0, 187500.0, 187500.0, 187500.0, 0.044, 0.19, 0.984, 192.0, 0.0, 0.0, 0.0, 0.0, 0.0, 0.0, 0.0, 0.0, 0.0, 1.695369415545472E9, 0.0, 2023-09-22 09:56:55.545
202.0, 3917.9255268484985, 187500.0, 187500.0, 187500.0, 187500.0, 187500.0, 187500.0, 187500.0, 0.044, 0.19, 0.984, 192.0, 0.0, 0.0, 0.0, 0.0, 0.0, 0.0, 0.0, 0.0, 0.0, 1.6953694155455363E9, 0.0, 2023-09-22 09:56:55.545
203.0, 3927.0897420751744, 187500.0, 187500.0, 187500.0, 187500.0, 187500.0, 187500.0, 187500.0, 0.044, 0.19, 0.984, 192.0, 0.0, 0.0, 0.0, 0.0, 0.0, 0.0, 0.0, 0.0, 0.0, 1.6953694155455832E9, 0.0, 2023-09-22 09:56:55.545
204.0, 3926.039210085775, 187500.0, 187500.0, 187500.0, 187500.0, 187500.0, 187500.0, 187500.0, 0.044, 0.19, 0.984, 192.0, 0.0, 0.0, 0.0, 0.0, 0.0, 0.0, 0.0, 0.0, 0.0, 1.6953694155456305E9, 0.0, 2023-09-22 09:56:55.545
205.0, 3892.399834680538, 187500.0, 187500.0, 187500.0, 187500.0, 187500.0, 187500.0, 187500.0, 0.044, 0.19, 0.984, 192.0, 0.0, 0.0, 0.0, 0.0, 0.0, 0.0, 0.0, 0.0, 0.0, 1.6953694155459168E9, 0.0, 2023-09-22 09:56:55.545
206.0, 3874.071404227186, 187500.0, 187500.0, 187500.0, 187500.0, 187500.0, 187500.0, 187500.0, 0.044, 0.19, 0.984, 192.0, 0.0, 0.0, 0.0, 0.0, 0.0, 0.0, 0.0, 0.0, 0.0, 1.6953694155459733E9, 0.0, 2023-09-22 09:56:55.545
207.0, 3865.5330378452586, 187500.0, 187500.0, 187500.0, 187500.0, 187500.0, 187500.0, 187500.0, 0.044, 0.19, 0.984, 192.0, 0.0, 0.0, 0.0, 0.0, 0.0, 0.0, 0.0, 0.0, 0.0, 1.6953694155460458E9, 0.0, 2023-09-22 09:56:55.546
208.0, 3866.71768030139, 187500.0, 187500.0, 187500.0, 187500.0, 187500.0, 187500.0, 187500.0, 0.044, 0.19, 0.984, 192.0, 0.0, 0.0, 0.0, 0.0, 0.0, 0.0, 0.0, 0.0, 0.0, 1.6953694155461004E9, 0.0, 2023-09-22 09:56:55.546
209.0, 3900.558221406725, 187500.0, 187500.0, 187500.0, 187500.0, 187500.0, 187500.0, 187500.0, 0.038, 0.186, 0.982, 192.0, 1.0, 48.0, 5.0, 208.0, 30.0, 176.0, 0.0, 0.0, 0.0, 1.6953694155461493E9, 0.0, 2023-09-22 09:56:55.546
210.0, 3918.2160995264176, 187500.0, 187500.0, 187500.0, 187500.0, 187500.0, 187500.0, 187500.0, 0.038, 0.186, 0.982, 192.0, 0.0, 0.0, 0.0, 0.0, 0.0, 0.0, 0.0, 0.0, 0.0, 1.6953694155461943E9, 0.0, 2023-09-22 09:56:55.546
211.0, 3927.3803147530934, 187500.0, 187500.0, 187500.0, 187500.0, 187500.0, 187500.0, 187500.0, 0.038, 0.186, 0.982, 192.0, 0.0, 0.0, 0.0, 0.0, 0.0, 0.0, 0.0, 0.0, 0.0, 1.6953694155462372E9, 0.0, 2023-09-22 09:56:55.546
212.0, 3926.039210085775, 187500.0, 187500.0, 187500.0, 187500.0, 187500.0, 187500.0, 187500.0, 0.038, 0.186, 0.982, 192.0, 0.0, 0.0, 0.0, 0.0, 0.0, 0.0, 0.0, 0.0, 0.0, 1.6953694155462825E9, 0.0, 2023-09-22 09:56:55.546
213.0, 3893.003331780831, 187500.0, 187500.0, 187500.0, 187500.0, 187500.0, 187500.0, 187500.0, 0.038, 0.186, 0.982, 192.0, 0.0, 0.0, 0.0, 0.0, 0.0, 0.0, 0.0, 0.0, 0.0, 1.6953694155463276E9, 0.0, 2023-09-22 09:56:55.546
214.0, 3875.2560466833174, 187500.0, 187500.0, 187500.0, 187500.0, 187500.0, 187500.0, 187500.0, 0.038, 0.186, 0.982, 192.0, 0.0, 0.0, 0.0, 0.0, 0.0, 0.0, 0.0, 0.0, 0.0, 1.6953694155463748E9, 0.0, 2023-09-22 09:56:55.546
215.0, 3865.5330378452586, 187500.0, 187500.0, 187500.0, 187500.0, 187500.0, 187500.0, 187500.0, 0.038, 0.186, 0.982, 192.0, 0.0, 0.0, 0.0, 0.0, 0.0, 0.0, 0.0, 0.0, 0.0, 1.6953694155464299E9, 0.0, 2023-09-22 09:56:55.546
216.0, 3866.1812384344626, 187500.0, 187500.0, 187500.0, 187500.0, 187500.0, 187500.0, 187500.0, 0.038, 0.186, 0.982, 192.0, 0.0, 0.0, 0.0, 0.0, 0.0, 0.0, 0.0, 0.0, 0.0, 1.6953694155464792E9, 0.0, 2023-09-22 09:56:55.546
217.0, 3899.842965584155, 187500.0, 187500.0, 187500.0, 187500.0, 187500.0, 187500.0, 187500.0, 0.038, 0.186, 0.982, 192.0, 0.0, 0.0, 0.0, 0.0, 0.0, 0.0, 0.0, 0.0, 0.0, 1.6953694155465224E9, 0.0, 2023-09-22 09:56:55.546
218.0, 3917.9702303374092, 187500.0, 187500.0, 187500.0, 187500.0, 187500.0, 187500.0, 187500.0, 0.038, 0.186, 0.982, 192.0, 0.0, 0.0, 0.0, 0.0, 0.0, 0.0, 0.0, 0.0, 0.0, 1.6953694155465665E9, 0.0, 2023-09-22 09:56:55.546
219.0, 3927.49207347537, 187500.0, 187500.0, 187500.0, 187500.0, 187500.0, 187500.0, 187500.0, 0.042, 0.192, 0.984, 192.0, 1.0, 80.0, 6.0, 0.0, 30.0, 192.0, 0.0, 0.0, 0.0, 1.6953694155466099E9, 0.0, 2023-09-22 09:56:55.546
220.0, 3926.553300208247, 187500.0, 187500.0, 187500.0, 187500.0, 187500.0, 187500.0, 187500.0, 0.042, 0.192, 0.984, 192.0, 0.0, 0.0, 0.0, 0.0, 0.0, 0.0, 0.0, 0.0, 0.0, 1.6953694155467365E9, 0.0, 2023-09-22 09:56:55.546
221.0, 3892.4445381694486, 187500.0, 187500.0, 187500.0, 187500.0, 187500.0, 187500.0, 187500.0, 0.042, 0.192, 0.984, 192.0, 0.0, 0.0, 0.0, 0.0, 0.0, 0.0, 0.0, 0.0, 0.0, 1.6953694155467844E9, 0.0, 2023-09-22 09:56:55.546
222.0, 3874.5407908607476, 187500.0, 187500.0, 187500.0, 187500.0, 187500.0, 187500.0, 187500.0, 0.042, 0.192, 0.984, 192.0, 0.0, 0.0, 0.0, 0.0, 0.0, 0.0, 0.0, 0.0, 0.0, 1.6953694155468287E9, 0.0, 2023-09-22 09:56:55.546
223.0, 3865.667148311991, 187500.0, 187500.0, 187500.0, 187500.0, 187500.0, 187500.0, 187500.0, 0.042, 0.192, 0.984, 192.0, 0.0, 0.0, 0.0, 0.0, 0.0, 0.0, 0.0, 0.0, 0.0, 1.6953694155468817E9, 0.0, 2023-09-22 09:56:55.546
224.0, 3866.360052390105, 187500.0, 187500.0, 187500.0, 187500.0, 187500.0, 187500.0, 187500.0, 0.042, 0.192, 0.984, 192.0, 0.0, 0.0, 0.0, 0.0, 0.0, 0.0, 0.0, 0.0, 0.0, 1.695369415546937E9, 0.0, 2023-09-22 09:56:55.546
225.0, 3899.6641516285126, 187500.0, 187500.0, 187500.0, 187500.0, 187500.0, 187500.0, 187500.0, 0.042, 0.192, 0.984, 192.0, 0.0, 0.0, 0.0, 0.0, 0.0, 0.0, 0.0, 0.0, 0.0, 1.695369416020965E9, 0.0, 2023-09-22 09:56:56.020
226.0, 3918.171396037507, 187500.0, 187500.0, 187500.0, 187500.0, 187500.0, 187500.0, 187500.0, 0.042, 0.192, 0.984, 192.0, 0.0, 0.0, 0.0, 0.0, 0.0, 0.0, 0.0, 0.0, 0.0, 1.6953694160210557E9, 0.0, 2023-09-22 09:56:56.021
227.0, 3927.581480453191, 187500.0, 187500.0, 187500.0, 187500.0, 187500.0, 187500.0, 187500.0, 0.042, 0.192, 0.984, 192.0, 0.0, 0.0, 0.0, 0.0, 0.0, 0.0, 0.0, 0.0, 0.0, 1.695369416021119E9, 0.0, 2023-09-22 09:56:56.021
228.0, 3926.486244974881, 187500.0, 187500.0, 187500.0, 187500.0, 187500.0, 187500.0, 187500.0, 0.042, 0.192, 0.984, 192.0, 0.0, 0.0, 0.0, 0.0, 0.0, 0.0, 0.0, 0.0, 0.0, 1.695369416021175E9, 0.0, 2023-09-22 09:56:56.021
229.0, 3892.9139248030096, 187500.0, 187500.0, 187500.0, 187500.0, 187500.0, 187500.0, 187500.0, 0.042, 0.194, 0.984, 192.0, 1.0, 80.0, 6.0, 16.0, 30.0, 192.0, 0.0, 0.0, 0.0, 1.6953694160212207E9, 0.0, 2023-09-22 09:56:56.021
230.0, 3874.3396251606496, 187500.0, 187500.0, 187500.0, 187500.0, 187500.0, 187500.0, 187500.0, 0.042, 0.194, 0.984, 192.0, 0.0, 0.0, 0.0, 0.0, 0.0, 0.0, 0.0, 0.0, 0.0, 1.695369416021269E9, 0.0, 2023-09-22 09:56:56.021
231.0, 3864.974244233876, 187500.0, 187500.0, 187500.0, 187500.0, 187500.0, 187500.0, 187500.0, 0.042, 0.194, 0.984, 192.0, 0.0, 0.0, 0.0, 0.0, 0.0, 0.0, 0.0, 0.0, 0.0, 1.6953694160213168E9, 0.0, 2023-09-22 09:56:56.021
232.0, 3866.4494593679265, 187500.0, 187500.0, 187500.0, 187500.0, 187500.0, 187500.0, 187500.0, 0.042, 0.194, 0.984, 192.0, 0.0, 0.0, 0.0, 0.0, 0.0, 0.0, 0.0, 0.0, 0.0, 1.6953694160213623E9, 0.0, 2023-09-22 09:56:56.021
233.0, 3900.290000473261, 187500.0, 187500.0, 187500.0, 187500.0, 187500.0, 187500.0, 187500.0, 0.042, 0.194, 0.984, 192.0, 0.0, 0.0, 0.0, 0.0, 0.0, 0.0, 0.0, 0.0, 0.0, 1.6953694160214071E9, 0.0, 2023-09-22 09:56:56.021
234.0, 3918.685486159979, 187500.0, 187500.0, 187500.0, 187500.0, 187500.0, 187500.0, 187500.0, 0.042, 0.194, 0.984, 192.0, 0.0, 0.0, 0.0, 0.0, 0.0, 0.0, 0.0, 0.0, 0.0, 1.6953694160214512E9, 0.0, 2023-09-22 09:56:56.021
235.0, 3927.3356112641827, 187500.0, 187500.0, 187500.0, 187500.0, 187500.0, 187500.0, 187500.0, 0.042, 0.194, 0.984, 192.0, 0.0, 0.0, 0.0, 0.0, 0.0, 0.0, 0.0, 0.0, 0.0, 1.6953694160216725E9, 0.0, 2023-09-22 09:56:56.021
236.0, 3925.7709891523114, 187500.0, 187500.0, 187500.0, 187500.0, 187500.0, 187500.0, 187500.0, 0.042, 0.194, 0.984, 192.0, 0.0, 0.0, 0.0, 0.0, 0.0, 0.0, 0.0, 0.0, 0.0, 1.6953694160217192E9, 0.0, 2023-09-22 09:56:56.021
237.0, 3892.623352125091, 187500.0, 187500.0, 187500.0, 187500.0, 187500.0, 187500.0, 187500.0, 0.042, 0.194, 0.984, 192.0, 0.0, 0.0, 0.0, 0.0, 0.0, 0.0, 0.0, 0.0, 0.0, 1.6953694160217636E9, 0.0, 2023-09-22 09:56:56.021
238.0, 3875.1219362165853, 187500.0, 187500.0, 187500.0, 187500.0, 187500.0, 187500.0, 187500.0, 0.042, 0.194, 0.984, 192.0, 0.0, 0.0, 0.0, 0.0, 0.0, 0.0, 0.0, 0.0, 0.0, 1.6953694160218136E9, 0.0, 2023-09-22 09:56:56.021
239.0, 3866.292997156739, 187500.0, 187500.0, 187500.0, 187500.0, 187500.0, 187500.0, 187500.0, 0.044, 0.19, 0.984, 192.0, 1.0, 96.0, 5.0, 240.0, 30.0, 192.0, 0.0, 0.0, 0.0, 1.6953694160218585E9, 0.0, 2023-09-22 09:56:56.021
240.0, 3866.7400320458455, 187500.0, 187500.0, 187500.0, 187500.0, 187500.0, 187500.0, 187500.0, 0.044, 0.19, 0.984, 192.0, 0.0, 0.0, 0.0, 0.0, 0.0, 0.0, 0.0, 0.0, 0.0, 1.6953694160219028E9, 0.0, 2023-09-22 09:56:56.021
241.0, 3900.0217795397975, 187500.0, 187500.0, 187500.0, 187500.0, 187500.0, 187500.0, 187500.0, 0.044, 0.19, 0.984, 192.0, 0.0, 0.0, 0.0, 0.0, 0.0, 0.0, 0.0, 0.0, 0.0, 1.6953694160219443E9, 0.0, 2023-09-22 09:56:56.021
242.0, 3918.551375693247, 187500.0, 187500.0, 187500.0, 187500.0, 187500.0, 187500.0, 187500.0, 0.044, 0.19, 0.984, 192.0, 0.0, 0.0, 0.0, 0.0, 0.0, 0.0, 0.0, 0.0, 0.0, 1.6953694160219858E9, 0.0, 2023-09-22 09:56:56.021
243.0, 3927.849701386655, 187500.0, 187500.0, 187500.0, 187500.0, 187500.0, 187500.0, 187500.0, 0.044, 0.19, 0.984, 192.0, 0.0, 0.0, 0.0, 0.0, 0.0, 0.0, 0.0, 0.0, 0.0, 1.6953694160220273E9, 0.0, 2023-09-22 09:56:56.022
244.0, 3927.0673903307193, 187500.0, 187500.0, 187500.0, 187500.0, 187500.0, 187500.0, 187500.0, 0.044, 0.19, 0.984, 192.0, 0.0, 0.0, 0.0, 0.0, 0.0, 0.0, 0.0, 0.0, 0.0, 1.6953694160220685E9, 0.0, 2023-09-22 09:56:56.022
245.0, 3893.428014925482, 187500.0, 187500.0, 187500.0, 187500.0, 187500.0, 187500.0, 187500.0, 0.044, 0.19, 0.984, 192.0, 0.0, 0.0, 0.0, 0.0, 0.0, 0.0, 0.0, 0.0, 0.0, 1.6953694160221105E9, 0.0, 2023-09-22 09:56:56.022
246.0, 3875.0325292387643, 187500.0, 187500.0, 187500.0, 187500.0, 187500.0, 187500.0, 187500.0, 0.044, 0.19, 0.984, 192.0, 0.0, 0.0, 0.0, 0.0, 0.0, 0.0, 0.0, 0.0, 0.0, 1.6953694160221522E9, 0.0, 2023-09-22 09:56:56.022
247.0, 3865.8012587787225, 187500.0, 187500.0, 187500.0, 187500.0, 187500.0, 187500.0, 187500.0, 0.044, 0.19, 0.984, 192.0, 0.0, 0.0, 0.0, 0.0, 0.0, 0.0, 0.0, 0.0, 0.0, 1.6953694160221934E9, 0.0, 2023-09-22 09:56:56.022
248.0, 3867.388232635049, 187500.0, 187500.0, 187500.0, 187500.0, 187500.0, 187500.0, 187500.0, 0.046, 0.184, 0.98, 192.0, 1.0, 112.0, 5.0, 192.0, 30.0, 160.0, 0.0, 0.0, 0.0, 1.6953694160222347E9, 0.0, 2023-09-22 09:56:56.022
249.0, 3900.91584931801, 187500.0, 187500.0, 187500.0, 187500.0, 187500.0, 187500.0, 187500.0, 0.046, 0.184, 0.98, 192.0, 0.0, 0.0, 0.0, 0.0, 0.0, 0.0, 0.0, 0.0, 0.0, 1.6953694160222783E9, 0.0, 2023-09-22 09:56:56.022
250.0, 3919.2442797713616, 187500.0, 187500.0, 187500.0, 187500.0, 187500.0, 187500.0, 187500.0, 0.046, 0.184, 0.98, 192.0, 0.0, 0.0, 0.0, 0.0, 0.0, 0.0, 0.0, 0.0, 0.0, 1.695369416022329E9, 0.0, 2023-09-22 09:56:56.022
251.0, 3928.006163597842, 187500.0, 187500.0, 187500.0, 187500.0, 187500.0, 187500.0, 187500.0, 0.046, 0.184, 0.98, 192.0, 0.0, 0.0, 0.0, 0.0, 0.0, 0.0, 0.0, 0.0, 0.0, 1.695369416022564E9, 0.0, 2023-09-22 09:56:56.022
252.0, 3926.866224630621, 187500.0, 187500.0, 187500.0, 187500.0, 187500.0, 187500.0, 187500.0, 0.046, 0.184, 0.98, 192.0, 0.0, 0.0, 0.0, 0.0, 0.0, 0.0, 0.0, 0.0, 0.0, 1.6953694160226083E9, 0.0, 2023-09-22 09:56:56.022
253.0, 3893.137442247563, 187500.0, 187500.0, 187500.0, 187500.0, 187500.0, 187500.0, 187500.0, 0.046, 0.184, 0.98, 192.0, 0.0, 0.0, 0.0, 0.0, 0.0, 0.0, 0.0, 0.0, 0.0, 1.6953694160226493E9, 0.0, 2023-09-22 09:56:56.022
254.0, 3875.390157150049, 187500.0, 187500.0, 187500.0, 187500.0, 187500.0, 187500.0, 187500.0, 0.046, 0.184, 0.98, 192.0, 0.0, 0.0, 0.0, 0.0, 0.0, 0.0, 0.0, 0.0, 0.0, 1.695369416022691E9, 0.0, 2023-09-22 09:56:56.022
255.0, 3866.270645412284, 187500.0, 187500.0, 187500.0, 187500.0, 187500.0, 187500.0, 187500.0, 0.046, 0.184, 0.98, 192.0, 0.0, 0.0, 0.0, 0.0, 0.0, 0.0, 0.0, 0.0, 0.0, 1.6953694160227325E9, 0.0, 2023-09-22 09:56:56.022
0.0, 3867.611750079602, 187500.0, 187500.0, 187500.0, 187500.0, 187500.0, 187500.0, 187500.0, 0.046, 0.184, 0.98, 192.0, 0.0, 0.0, 0.0, 0.0, 0.0, 0.0, 0.0, 0.0, 0.0, 1.695369416022774E9, 0.0, 2023-09-22 09:56:56.022
1.0, 3900.91584931801, 187500.0, 187500.0, 187500.0, 187500.0, 187500.0, 187500.0, 187500.0, 0.046, 0.184, 0.98, 192.0, 0.0, 0.0, 0.0, 0.0, 0.0, 0.0, 0.0, 0.0, 0.0, 1.6953694160228152E9, 0.0, 2023-09-22 09:56:56.022
2.0, 3919.400741982549, 187500.0, 187500.0, 187500.0, 187500.0, 187500.0, 187500.0, 187500.0, 0.042, 0.182, 0.984, 192.0, 1.0, 80.0, 5.0, 176.0, 30.0, 192.0, 0.0, 0.0, 0.0, 1.6953694160228574E9, 0.0, 2023-09-22 09:56:56.022
3.0, 3928.7214194204116, 187500.0, 187500.0, 187500.0, 187500.0, 187500.0, 187500.0, 187500.0, 0.042, 0.182, 0.984, 192.0, 0.0, 0.0, 0.0, 0.0, 0.0, 0.0, 0.0, 0.0, 0.0, 1.6953694160229018E9, 0.0, 2023-09-22 09:56:56.022
4.0, 3926.933279863987, 187500.0, 187500.0, 187500.0, 187500.0, 187500.0, 187500.0, 187500.0, 0.042, 0.182, 0.984, 192.0, 0.0, 0.0, 0.0, 0.0, 0.0, 0.0, 0.0, 0.0, 0.0, 1.6953694160229697E9, 0.0, 2023-09-22 09:56:56.022
5.0, 3893.2268492253843, 187500.0, 187500.0, 187500.0, 187500.0, 187500.0, 187500.0, 187500.0, 0.042, 0.182, 0.984, 192.0, 0.0, 0.0, 0.0, 0.0, 0.0, 0.0, 0.0, 0.0, 0.0, 1.695369416023014E9, 0.0, 2023-09-22 09:56:56.023
6.0, 3875.010177494309, 187500.0, 187500.0, 187500.0, 187500.0, 187500.0, 187500.0, 187500.0, 0.042, 0.182, 0.984, 192.0, 0.0, 0.0, 0.0, 0.0, 0.0, 0.0, 0.0, 0.0, 0.0, 1.695369416023056E9, 0.0, 2023-09-22 09:56:56.023
7.0, 3866.3824041345606, 187500.0, 187500.0, 187500.0, 187500.0, 187500.0, 187500.0, 187500.0, 0.042, 0.182, 0.984, 192.0, 0.0, 0.0, 0.0, 0.0, 0.0, 0.0, 0.0, 0.0, 0.0, 1.6953694160231016E9, 0.0, 2023-09-22 09:56:56.023
8.0, 3867.388232635049, 187500.0, 187500.0, 187500.0, 187500.0, 187500.0, 187500.0, 187500.0, 0.042, 0.182, 0.984, 192.0, 0.0, 0.0, 0.0, 0.0, 0.0, 0.0, 0.0, 0.0, 0.0, 1.6953694160231476E9, 0.0, 2023-09-22 09:56:56.023
9.0, 3900.558221406725, 187500.0, 187500.0, 187500.0, 187500.0, 187500.0, 187500.0, 187500.0, 0.042, 0.182, 0.984, 192.0, 0.0, 0.0, 0.0, 0.0, 0.0, 0.0, 0.0, 0.0, 0.0, 1.6953694160231922E9, 0.0, 2023-09-22 09:56:56.023
10.0, 3918.841948371166, 187500.0, 187500.0, 187500.0, 187500.0, 187500.0, 187500.0, 187500.0, 0.042, 0.182, 0.984, 192.0, 0.0, 0.0, 0.0, 0.0, 0.0, 0.0, 0.0, 0.0, 0.0, 1.695369416023666E9, 0.0, 2023-09-22 09:56:56.023
11.0, 3928.006163597842, 187500.0, 187500.0, 187500.0, 187500.0, 187500.0, 187500.0, 187500.0, 0.042, 0.182, 0.984, 192.0, 0.0, 0.0, 0.0, 0.0, 0.0, 0.0, 0.0, 0.0, 0.0, 1.695369416023719E9, 0.0, 2023-09-22 09:56:56.023
12.0, 3927.134445564085, 187500.0, 187500.0, 187500.0, 187500.0, 187500.0, 187500.0, 187500.0, 0.036000000000000004, 0.182, 0.986, 192.0, 1.0, 32.0, 5.0, 176.0, 30.0, 208.0, 0.0, 0.0, 0.0, 1.6953694160237615E9, 0.0, 2023-09-22 09:56:56.023
13.0, 3893.7632910923116, 187500.0, 187500.0, 187500.0, 187500.0, 187500.0, 187500.0, 187500.0, 0.036000000000000004, 0.182, 0.986, 192.0, 0.0, 0.0, 0.0, 0.0, 0.0, 0.0, 0.0, 0.0, 0.0, 1.695369416023806E9, 0.0, 2023-09-22 09:56:56.023
14.0, 3875.6360263390575, 187500.0, 187500.0, 187500.0, 187500.0, 187500.0, 187500.0, 187500.0, 0.036000000000000004, 0.182, 0.986, 192.0, 0.0, 0.0, 0.0, 0.0, 0.0, 0.0, 0.0, 0.0, 0.0, 1.6953694160238483E9, 0.0, 2023-09-22 09:56:56.023
15.0, 3866.33770064565, 187500.0, 187500.0, 187500.0, 187500.0, 187500.0, 187500.0, 187500.0, 0.036000000000000004, 0.182, 0.986, 192.0, 0.0, 0.0, 0.0, 0.0, 0.0, 0.0, 0.0, 0.0, 0.0, 1.69536941602389E9, 0.0, 2023-09-22 09:56:56.023
16.0, 3866.941197745943, 187500.0, 187500.0, 187500.0, 187500.0, 187500.0, 187500.0, 187500.0, 0.036000000000000004, 0.182, 0.986, 192.0, 0.0, 0.0, 0.0, 0.0, 0.0, 0.0, 0.0, 0.0, 0.0, 1.6953694160239327E9, 0.0, 2023-09-22 09:56:56.023
17.0, 3900.871145829099, 187500.0, 187500.0, 187500.0, 187500.0, 187500.0, 187500.0, 187500.0, 0.036000000000000004, 0.182, 0.986, 192.0, 0.0, 0.0, 0.0, 0.0, 0.0, 0.0, 0.0, 0.0, 0.0, 1.6953694160239768E9, 0.0, 2023-09-22 09:56:56.023
18.0, 3919.445445471459, 187500.0, 187500.0, 187500.0, 187500.0, 187500.0, 187500.0, 187500.0, 0.036000000000000004, 0.182, 0.986, 192.0, 0.0, 0.0, 0.0, 0.0, 0.0, 0.0, 0.0, 0.0, 0.0, 1.6953694160240204E9, 0.0, 2023-09-22 09:56:56.024
19.0, 3928.229681042395, 187500.0, 187500.0, 187500.0, 187500.0, 187500.0, 187500.0, 187500.0, 0.036000000000000004, 0.182, 0.986, 192.0, 0.0, 0.0, 0.0, 0.0, 0.0, 0.0, 0.0, 0.0, 0.0, 1.695369416024062E9, 0.0, 2023-09-22 09:56:56.024
20.0, 3926.329782763694, 187500.0, 187500.0, 187500.0, 187500.0, 187500.0, 187500.0, 187500.0, 0.036000000000000004, 0.182, 0.986, 192.0, 0.0, 0.0, 0.0, 0.0, 0.0, 0.0, 0.0, 0.0, 0.0, 1.6953694160241055E9, 0.0, 2023-09-22 09:56:56.024
21.0, 3892.8021660807335, 187500.0, 187500.0, 187500.0, 187500.0, 187500.0, 187500.0, 187500.0, 0.036000000000000004, 0.182, 0.986, 192.0, 0.0, 0.0, 0.0, 0.0, 0.0, 0.0, 0.0, 0.0, 0.0, 1.695369416024149E9, 0.0, 2023-09-22 09:56:56.024
22.0, 3875.6136745946023, 187500.0, 187500.0, 187500.0, 187500.0, 187500.0, 187500.0, 187500.0, 0.034, 0.186, 0.988, 192.0, 1.0, 16.0, 5.0, 208.0, 30.0, 224.0, 0.0, 0.0, 0.0, 1.6953694160241904E9, 0.0, 2023-09-22 09:56:56.024
