%OpenBCI Raw EXG Data
%Number of channels = 8
%Sample Rate = 250 Hz
%Board = OpenBCI_GUI$BoardCytonSerial
Sample Index, EXG Channel 0, EXG Channel 1, EXG Channel 2, EXG Channel 3, EXG Channel 4, EXG Channel 5, EXG Channel 6, EXG Channel 7, Accel Channel 0, Accel Channel 1, Accel Channel 2, Other, Other, Other, Other, Other, Other, Other, Analog Channel 0, Analog Channel 1, Analog Channel 2, Timestamp, Other, Timestamp (Formatted)
0.0, 0.0, 0.0, 0.0, 0.0, 0.0, 0.0, 0.0, 0.0, 0.032, 0.08, 0.99, 192.0, 1.0, 0.0, 2.0, 128.0, 30.0, 240.0, 0.0, 0.0, 0.0, 1.6953709118900418E9, 0.0, 2023-09-22 10:21:51.890
1.0, 4792.884563551494, 3812.8052726751894, 4848.875683412038, 4776.7466040547615, 4810.005999804259, 4904.598582339118, 4798.6960171098735, 4772.276255163701, 0.032, 0.08, 0.99, 192.0, 0.0, 0.0, 0.0, 0.0, 0.0, 0.0, 0.0, 0.0, 0.0, 1.6953709123770604E9, 0.0, 2023-09-22 10:21:52.377
2.0, 4967.898722636548, 4783.809755302639, 5015.217365648433, 4942.998879313335, 4976.392385529564, 5071.007319808879, 4964.925940623992, 4938.416771699997, 0.032, 0.08, 0.99, 192.0, 0.0, 0.0, 0.0, 0.0, 0.0, 0.0, 0.0, 0.0, 0.0, 1.6953709123772497E9, 0.0, 2023-09-22 10:21:52.377
3.0, 5174.272379192398, 5123.310401834297, 5218.037094835889, 5145.773905011882, 5179.234466461476, 5273.737642018515, 5167.6786145780825, 5140.990631698445, 0.032, 0.08, 0.99, 192.0, 0.0, 0.0, 0.0, 0.0, 0.0, 0.0, 0.0, 0.0, 0.0, 1.6953709123772972E9, 0.0, 2023-09-22 10:21:52.377
4.0, 5322.486796675539, 5272.061261184366, 5366.519733252494, 5294.211839939576, 5327.62769790026, 5422.175576946209, 5316.116549505777, 5289.316807903863, 0.032, 0.08, 0.99, 192.0, 0.0, 0.0, 0.0, 0.0, 0.0, 0.0, 0.0, 0.0, 0.0, 1.6953709123773437E9, 0.0, 2023-09-22 10:21:52.377
5.0, 5276.598665308794, 5226.039019350889, 5320.497491419017, 5248.167246361643, 5281.694863044603, 5376.220390346097, 5270.071955927844, 5243.339269559297, 0.032, 0.08, 0.99, 192.0, 0.0, 0.0, 0.0, 0.0, 0.0, 0.0, 0.0, 0.0, 0.0, 1.6953709123773868E9, 0.0, 2023-09-22 10:21:52.377
6.0, 5094.141375320122, 5043.447618895486, 5137.704925263515, 5065.374680206141, 5099.036407355834, 5193.517231168417, 5087.301741516798, 5060.770220848349, 0.032, 0.08, 0.99, 192.0, 0.0, 0.0, 0.0, 0.0, 0.0, 0.0, 0.0, 0.0, 0.0, 1.6953709123774312E9, 0.0, 2023-09-22 10:21:52.377
7.0, 4958.332176009676, 4904.889155017037, 5001.8510224641595, 4929.587832640152, 4963.31661502321, 5057.819790580248, 4951.581949184174, 4925.162187238001, 0.032, 0.08, 0.99, 192.0, 0.0, 0.0, 0.0, 0.0, 0.0, 0.0, 0.0, 0.0, 0.0, 1.695370912377474E9, 0.0, 2023-09-22 10:21:52.377
8.0, 4865.9077126869815, 4643.194930934302, 4914.679219088462, 4842.48308449782, 4876.122459903057, 4970.60328371564, 4864.544256275208, 4838.057439095669, 0.03, 0.04, 0.998, 192.0, 0.0, 240.0, 1.0, 64.0, 31.0, 48.0, 0.0, 0.0, 0.0, 1.6953709123775175E9, 0.0, 2023-09-22 10:21:52.377
9.0, 4886.180744907945, 4635.81885526405, 4936.338059465655, 4864.141924875013, 4897.691893302428, 4992.172717115011, 4886.15839316349, 4859.671575983951, 0.03, 0.04, 0.998, 192.0, 0.0, 0.0, 0.0, 0.0, 0.0, 0.0, 0.0, 0.0, 0.0, 1.6953709123775628E9, 0.0, 2023-09-22 10:21:52.377
10.0, 4995.391368316576, 4937.008611799313, 5039.379601404619, 4967.138763325067, 5000.733435241394, 5095.236610798432, 4989.043472891268, 4962.511952222819, 0.03, 0.04, 0.998, 192.0, 0.0, 0.0, 0.0, 0.0, 0.0, 0.0, 0.0, 0.0, 0.0, 1.6953709123776047E9, 0.0, 2023-09-22 10:21:52.377
11.0, 5112.380398795653, 5061.753697604382, 5155.966300483501, 5083.613703681673, 5117.186023853544, 5211.711551155037, 5105.496061503418, 5078.964540834969, 0.03, 0.04, 0.998, 192.0, 0.0, 0.0, 0.0, 0.0, 0.0, 0.0, 0.0, 0.0, 0.0, 1.695370912377647E9, 0.0, 2023-09-22 10:21:52.377
12.0, 5271.122487917243, 5220.585193703794, 5314.976610538556, 5242.668717225638, 5276.173982164143, 5370.58775074336, 5264.640482025205, 5237.818388678836, 0.03, 0.04, 0.998, 192.0, 0.0, 0.0, 0.0, 0.0, 0.0, 0.0, 0.0, 0.0, 0.0, 1.69537091237769E9, 0.0, 2023-09-22 10:21:52.377
13.0, 5312.517918648472, 5262.025327923933, 5356.528503480971, 5284.242961912509, 5317.7705785954695, 5412.184347174686, 5306.1476714787095, 5279.347929876796, 0.03, 0.04, 0.998, 192.0, 0.0, 0.0, 0.0, 0.0, 0.0, 0.0, 0.0, 0.0, 0.0, 1.6953709123777323E9, 0.0, 2023-09-22 10:21:52.377
14.0, 5177.245161204954, 5126.663163502594, 5221.0322285929005, 5148.791390513348, 5182.319007196308, 5276.777479264436, 5170.517286123906, 5144.052820688823, 0.03, 0.04, 0.998, 192.0, 0.0, 0.0, 0.0, 0.0, 0.0, 0.0, 0.0, 0.0, 0.0, 1.6953709123777742E9, 0.0, 2023-09-22 10:21:52.377
15.0, 4980.08042336469, 4865.594788264607, 5025.029781464313, 4952.744239895849, 4986.316560067721, 5080.842087369214, 4974.5595424842295, 4948.184484026967, 0.03, 0.04, 0.998, 192.0, 0.0, 0.0, 0.0, 0.0, 0.0, 0.0, 0.0, 0.0, 0.0, 1.6953709123778155E9, 0.0, 2023-09-22 10:21:52.377
16.0, 4798.651313620962, 3915.10920704713, 4852.63077648053, 4780.345234912066, 4813.828148106116, 4908.376027152065, 4802.3393514560885, 4775.986644743281, 0.03, 0.04, 0.998, 192.0, 0.0, 0.0, 0.0, 0.0, 0.0, 0.0, 0.0, 0.0, 0.0, 1.6953709123778727E9, 0.0, 2023-09-22 10:21:52.377
17.0, 4827.99915409078, 4045.2857667548383, 4881.978616950348, 4809.737778870795, 4843.198340320389, 4937.790922855249, 4831.731895414817, 4805.356836957555, 0.032, 0.022, 0.998, 192.0, 1.0, 0.0, 0.0, 176.0, 31.0, 48.0, 0.0, 0.0, 0.0, 1.6953709123783412E9, 0.0, 2023-09-22 10:21:52.378
18.0, 5028.114322199145, 4929.140797751045, 5073.264845998865, 5001.001656174857, 5034.685735069005, 5129.121855392677, 5022.906365741059, 4996.374845072609, 0.032, 0.022, 0.998, 192.0, 0.0, 0.0, 0.0, 0.0, 0.0, 0.0, 0.0, 0.0, 0.0, 1.6953709123783832E9, 0.0, 2023-09-22 10:21:52.378
19.0, 5193.517231168417, 5142.935233466057, 5237.214891578543, 5164.9740534989905, 5198.658132393138, 5292.982493994534, 5186.901114809646, 5160.235483674465, 0.032, 0.022, 0.998, 192.0, 0.0, 0.0, 0.0, 0.0, 0.0, 0.0, 0.0, 0.0, 0.0, 1.6953709123784256E9, 0.0, 2023-09-22 10:21:52.378
20.0, 5292.043720727411, 5241.506426513962, 5335.875491604268, 5263.679357013626, 5297.274028929953, 5391.643094020259, 5285.584066579827, 5258.829028466825, 0.032, 0.022, 0.998, 192.0, 0.0, 0.0, 0.0, 0.0, 0.0, 0.0, 0.0, 0.0, 0.0, 1.695370912378465E9, 0.0, 2023-09-22 10:21:52.378
21.0, 5250.223606851531, 5199.663960893627, 5293.965970750567, 5221.725132671015, 5255.386859820707, 5349.800628399924, 5243.719249215037, 5217.031266335401, 0.032, 0.022, 0.998, 192.0, 0.0, 0.0, 0.0, 0.0, 0.0, 0.0, 0.0, 0.0, 0.0, 1.6953709123785052E9, 0.0, 2023-09-22 10:21:52.378
22.0, 5124.115064634689, 5073.555418676784, 5167.700966322537, 5095.415424754075, 5129.188910626043, 5223.55797571635, 5117.409541298097, 5090.855668885192, 0.032, 0.022, 0.998, 192.0, 0.0, 0.0, 0.0, 0.0, 0.0, 0.0, 0.0, 0.0, 0.0, 1.6953709123785496E9, 0.0, 2023-09-22 10:21:52.378
23.0, 5020.738246528894, 4969.105716837134, 5064.279444727832, 4992.016254903824, 5025.767389031338, 5120.20350935501, 5014.010371447846, 4987.523554268308, 0.032, 0.022, 0.998, 192.0, 0.0, 0.0, 0.0, 0.0, 0.0, 0.0, 0.0, 0.0, 0.0, 1.695370912378598E9, 0.0, 2023-09-22 10:21:52.378
24.0, 4890.762852521283, 4647.687631569819, 4938.573233911185, 4866.310044087177, 4900.038826470235, 4994.474946793908, 4888.415919353476, 4861.973805662848, 0.032, 0.022, 0.998, 192.0, 0.0, 0.0, 0.0, 0.0, 0.0, 0.0, 0.0, 0.0, 0.0, 1.6953709123786404E9, 0.0, 2023-09-22 10:21:52.378
25.0, 4849.948567145892, 4446.3878210053235, 4902.743387549328, 4830.5696047031415, 4864.074869641647, 4958.399231243042, 4852.541369502708, 4826.14395930099, 0.032, 0.022, 0.998, 192.0, 0.0, 0.0, 0.0, 0.0, 0.0, 0.0, 0.0, 0.0, 0.0, 1.6953709123786862E9, 0.0, 2023-09-22 10:21:52.378
26.0, 4963.026042345291, 4869.148715633001, 5008.824766734215, 4936.673335632484, 4970.268007548811, 5064.659424383572, 4958.510989965319, 4932.113579763602, 0.032, 0.022, 0.998, 192.0, 0.0, 0.0, 0.0, 0.0, 0.0, 0.0, 0.0, 0.0, 0.0, 1.6953709123787284E9, 0.0, 2023-09-22 10:21:52.378
27.0, 5142.219977643487, 5091.593276452217, 5185.850582820247, 5113.542689507329, 5147.137361423655, 5241.573481747328, 5135.402695584619, 5108.848823171714, 0.038, 0.012, 1.004, 192.0, 1.0, 48.0, 0.0, 96.0, 31.0, 96.0, 0.0, 0.0, 0.0, 1.6953709123787708E9, 0.0, 2023-09-22 10:21:52.378
28.0, 5330.376962468263, 5279.772613021447, 5374.186381600664, 5301.967895265567, 5335.495511948528, 5429.909280527745, 5323.827901342857, 5297.0505114853995, 0.038, 0.012, 1.004, 192.0, 0.0, 0.0, 0.0, 0.0, 0.0, 0.0, 0.0, 0.0, 0.0, 1.6953709123788283E9, 0.0, 2023-09-22 10:21:52.378
29.0, 5333.014468313989, 5282.410118867174, 5376.846239190846, 5304.71715983357, 5338.222424772075, 5432.636193351293, 5326.599517655315, 5299.799776053403, 0.038, 0.012, 1.004, 192.0, 0.0, 0.0, 0.0, 0.0, 0.0, 0.0, 0.0, 0.0, 0.0, 1.695370912378888E9, 0.0, 2023-09-22 10:21:52.378
30.0, 5144.388096855652, 5093.828450897748, 5188.018702032412, 5115.77786395286, 5149.417239358097, 5243.853359681769, 5137.771980496881, 5111.039294128334, 0.038, 0.012, 1.004, 192.0, 0.0, 0.0, 0.0, 0.0, 0.0, 0.0, 0.0, 0.0, 0.0, 1.6953709123789473E9, 0.0, 2023-09-22 10:21:52.378
31.0, 4949.391478227553, 4859.537465517219, 4994.206725860444, 4922.099998247623, 4955.627614930584, 5050.220197465444, 4943.892949091548, 4917.406131912009, 0.038, 0.012, 1.004, 192.0, 0.0, 0.0, 0.0, 0.0, 0.0, 0.0, 0.0, 0.0, 0.0, 1.6953709123790069E9, 0.0, 2023-09-22 10:21:52.379
32.0, 4824.825206378127, 4283.577714392867, 4877.195343636911, 4805.066264279636, 4838.504473984775, 4932.9405943084475, 4826.926270356926, 4800.551211899664, 0.038, 0.012, 1.004, 192.0, 0.0, 0.0, 0.0, 0.0, 0.0, 0.0, 0.0, 0.0, 0.0, 1.6953709123790648E9, 0.0, 2023-09-22 10:21:52.379
33.0, 4891.142832177024, 4503.205955410714, 4941.4566089459195, 4869.305177844189, 4902.87749801606, 4997.268914850822, 4891.2098874103895, 4864.723070230851, 0.038, 0.012, 1.004, 192.0, 0.0, 0.0, 0.0, 0.0, 0.0, 0.0, 0.0, 0.0, 0.0, 1.6953709123795793E9, 0.0, 2023-09-22 10:21:52.379
34.0, 5051.829523066226, 4992.4632897929305, 5095.661293943083, 5023.532214585807, 5057.1492382465885, 5151.563006825806, 5045.369868918642, 5018.793644761282, 0.038, 0.012, 1.004, 192.0, 0.0, 0.0, 0.0, 0.0, 0.0, 0.0, 0.0, 0.0, 0.0, 1.6953709123796284E9, 0.0, 2023-09-22 10:21:52.379
35.0, 5163.543541853851, 5112.827433684759, 5207.017684819422, 5134.888605462147, 5168.393870400652, 5262.919397702146, 5156.726259794982, 5130.127683893166, 0.038, 0.012, 1.004, 192.0, 0.0, 0.0, 0.0, 0.0, 0.0, 0.0, 0.0, 0.0, 0.0, 1.6953709123796792E9, 0.0, 2023-09-22 10:21:52.379
36.0, 5267.099173915288, 5216.472472724017, 5310.752130836503, 5238.623051479227, 5272.083612928822, 5366.564436741404, 5260.505409300972, 5233.638612465694, 0.038, 0.012, 1.004, 192.0, 0.0, 0.0, 0.0, 0.0, 0.0, 0.0, 0.0, 0.0, 0.0, 1.695370912379732E9, 0.0, 2023-09-22 10:21:52.379
37.0, 5282.030139211433, 5231.515196742439, 5325.906613577201, 5253.665775497649, 5287.171040436154, 5381.607160759826, 5275.570485063849, 5248.726039973026, 0.034, 0.002, 1.004, 192.0, 1.0, 16.0, 0.0, 16.0, 31.0, 96.0, 0.0, 0.0, 0.0, 1.6953709123797824E9, 0.0, 2023-09-22 10:21:52.379
38.0, 5185.090623508767, 5134.508625806407, 5228.810635663347, 5156.569797583795, 5190.186821244576, 5284.600589823794, 5178.519210638906, 5151.764172525904, 0.034, 0.002, 1.004, 192.0, 0.0, 0.0, 0.0, 0.0, 0.0, 0.0, 0.0, 0.0, 0.0, 1.6953709123798473E9, 0.0, 2023-09-22 10:21:52.379
39.0, 5038.507883370863, 4979.4322227754865, 5082.317302503265, 5010.076464423712, 5043.849950295681, 5138.286070619353, 5032.115284456645, 5005.516708554829, 0.034, 0.002, 1.004, 192.0, 0.0, 0.0, 0.0, 0.0, 0.0, 0.0, 0.0, 0.0, 0.0, 1.6953709123798928E9, 0.0, 2023-09-22 10:21:52.379
40.0, 4850.909692157471, 4359.2830728629915, 4901.379931137554, 4829.228500035822, 4862.845523696605, 4957.236940531367, 4851.200264835389, 4824.825206378127, 0.034, 0.002, 1.004, 192.0, 0.0, 0.0, 0.0, 0.0, 0.0, 0.0, 0.0, 0.0, 0.0, 1.6953709123799732E9, 0.0, 2023-09-22 10:21:52.379
41.0, 4821.807720876661, 4125.707343305033, 4876.211866880878, 4804.127491012513, 4837.476293739831, 4932.046524530235, 4826.121607556535, 4799.679493865907, 0.034, 0.002, 1.004, 192.0, 0.0, 0.0, 0.0, 0.0, 0.0, 0.0, 0.0, 0.0, 0.0, 1.695370912380033E9, 0.0, 2023-09-22 10:21:52.380
42.0, 4994.966685171925, 4871.026262167247, 5040.966575260946, 4968.770440670305, 5002.342760842176, 5096.91299163258, 4990.719853725416, 4964.188333056967, 0.034, 0.002, 1.004, 192.0, 0.0, 0.0, 0.0, 0.0, 0.0, 0.0, 0.0, 0.0, 0.0, 1.6953709123800764E9, 0.0, 2023-09-22 10:21:52.380
43.0, 5199.574553915805, 5148.858445746714, 5243.138103859199, 5170.9643210130125, 5204.514289440428, 5299.017464997467, 5192.869030579213, 5166.225751188487, 0.034, 0.002, 1.004, 192.0, 0.0, 0.0, 0.0, 0.0, 0.0, 0.0, 0.0, 0.0, 0.0, 1.6953709123801262E9, 0.0, 2023-09-22 10:21:52.380
44.0, 5350.627642944771, 5299.978590009045, 5394.392358588262, 5322.285630975442, 5355.723840680581, 5450.227016237619, 5344.190340541642, 5317.345895450819, 0.034, 0.002, 1.004, 192.0, 0.0, 0.0, 0.0, 0.0, 0.0, 0.0, 0.0, 0.0, 0.0, 1.6953709123802288E9, 0.0, 2023-09-22 10:21:52.380
45.0, 5302.794909810414, 5252.235263852509, 5346.447866731628, 5274.475249585539, 5307.824052312858, 5402.394283103262, 5296.268200429464, 5269.46845882755, 0.034, 0.002, 1.004, 192.0, 0.0, 0.0, 0.0, 0.0, 0.0, 0.0, 0.0, 0.0, 0.0, 1.6953709123802824E9, 0.0, 2023-09-22 10:21:52.380
46.0, 5120.091750632733, 5069.509752930374, 5163.543541853851, 5091.503869474396, 5125.009134412901, 5219.534661714395, 5113.319172062776, 5086.586485694228, 0.034, 0.002, 1.004, 192.0, 0.0, 0.0, 0.0, 0.0, 0.0, 0.0, 0.0, 0.0, 0.0, 1.6953709123803196E9, 0.0, 2023-09-22 10:21:52.380
47.0, 4984.886048422582, 4933.991126297847, 5028.203729176967, 4956.07464981969, 4989.803432202749, 5084.239552526421, 4977.979359385891, 4951.425486972987, 0.034, 0.004, 1.004, 192.0, 1.0, 16.0, 0.0, 32.0, 31.0, 96.0, 0.0, 0.0, 0.0, 1.6953709123803592E9, 0.0, 2023-09-22 10:21:52.380
48.0, 4893.176840922456, 4797.690188609385, 4939.6908211339505, 4867.4946865433085, 4901.223468926367, 4995.6372375055835, 4889.44409959842, 4863.046689396702, 0.034, 0.004, 1.004, 192.0, 0.0, 0.0, 0.0, 0.0, 0.0, 0.0, 0.0, 0.0, 0.0, 1.695370912380402E9, 0.0, 2023-09-22 10:21:52.380
49.0, 4916.109730733601, 4801.489985166787, 4963.853056890137, 4891.589867066129, 4925.229242471367, 5019.7547697728605, 4913.539280121241, 4887.231276897344, 0.034, 0.004, 1.004, 192.0, 0.0, 0.0, 0.0, 0.0, 0.0, 0.0, 0.0, 0.0, 0.0, 1.6953709123805878E9, 0.0, 2023-09-22 10:21:52.380
50.0, 5022.973420974425, 4970.379766271087, 5066.469915684452, 4994.206725860444, 5028.002563476868, 5122.4833872894515, 5016.08908368219, 4989.736376969383, 0.034, 0.004, 1.004, 192.0, 0.0, 0.0, 0.0, 0.0, 0.0, 0.0, 0.0, 0.0, 0.0, 1.6953709123806674E9, 0.0, 2023-09-22 10:21:52.380
51.0, 5139.582471797761, 5088.888715373125, 5182.989559529968, 5110.748721450415, 5144.455152089018, 5238.89127241269, 5132.608727527706, 5106.144262092622, 0.034, 0.004, 1.004, 192.0, 0.0, 0.0, 0.0, 0.0, 0.0, 0.0, 0.0, 0.0, 0.0, 1.6953709123807304E9, 0.0, 2023-09-22 10:21:52.380
52.0, 5295.888220773723, 5245.328574815819, 5339.563529439393, 5267.479153571028, 5300.939715020623, 5395.30878011093, 5289.272104414953, 5262.584121535316, 0.034, 0.004, 1.004, 192.0, 0.0, 0.0, 0.0, 0.0, 0.0, 0.0, 0.0, 0.0, 0.0, 1.695370912380778E9, 0.0, 2023-09-22 10:21:52.380
53.0, 5339.541177694939, 5289.003883481489, 5383.305893338429, 5311.24386921452, 5344.793837641935, 5439.1629027322415, 5333.10387529181, 5306.371188923263, 0.034, 0.004, 1.004, 192.0, 0.0, 0.0, 0.0, 0.0, 0.0, 0.0, 0.0, 0.0, 0.0, 1.6953709123808284E9, 0.0, 2023-09-22 10:21:52.380
54.0, 5207.442367964073, 5156.949777239535, 5251.162380118654, 5178.988597272468, 5212.627972677705, 5307.019389512467, 5200.9603620720345, 5174.294730936853, 0.034, 0.004, 1.004, 192.0, 0.0, 0.0, 0.0, 0.0, 0.0, 0.0, 0.0, 0.0, 0.0, 1.6953709123808846E9, 0.0, 2023-09-22 10:21:52.380
55.0, 5009.472967323419, 4932.448855930431, 5053.640014367105, 4981.4885832653745, 5015.262069137343, 5109.653485972105, 5003.572106787218, 4976.973530885402, 0.034, 0.004, 1.004, 192.0, 0.0, 0.0, 0.0, 0.0, 0.0, 0.0, 0.0, 0.0, 0.0, 1.695370912380941E9, 0.0, 2023-09-22 10:21:52.380
56.0, 4825.4063517339655, 4212.812091447365, 4877.48591631483, 4805.356836957555, 4839.018564107248, 4933.409980942009, 4827.485063968309, 4801.020598533225, 0.034, 0.004, 1.004, 192.0, 0.0, 0.0, 0.0, 0.0, 0.0, 0.0, 0.0, 0.0, 0.0, 1.6953709123809812E9, 0.0, 2023-09-22 10:21:52.380
57.0, 4852.519017758253, 4275.419327666679, 4905.157375950501, 4833.028296593225, 4866.48885804282, 4961.014385344313, 4855.044764881703, 4828.513244213253, 0.034, 0.002, 1.002, 192.0, 1.0, 16.0, 0.0, 16.0, 31.0, 80.0, 0.0, 0.0, 0.0, 1.6953709123810215E9, 0.0, 2023-09-22 10:21:52.381
58.0, 5057.640976624605, 4980.482754764886, 5102.076244601756, 5029.813054777748, 5063.4300784385305, 5157.977957484479, 5051.784819577315, 5025.141540186589, 0.034, 0.002, 1.002, 192.0, 0.0, 0.0, 0.0, 0.0, 0.0, 0.0, 0.0, 0.0, 0.0, 1.6953709123810713E9, 0.0, 2023-09-22 10:21:52.381
59.0, 5226.754275173459, 5176.060518748823, 5270.295473372397, 5198.1440422706655, 5231.738714186992, 5326.15248276621, 5219.9816966035005, 5193.383120701686, 0.034, 0.002, 1.002, 192.0, 0.0, 0.0, 0.0, 0.0, 0.0, 0.0, 0.0, 0.0, 0.0, 1.6953709123811326E9, 0.0, 2023-09-22 10:21:52.381
60.0, 5323.313811220385, 5272.821220495846, 5367.167933841698, 5295.038854484422, 5328.499415934017, 5422.913184513233, 5316.8318053283465, 5290.166174193165, 0.034, 0.002, 1.002, 192.0, 0.0, 0.0, 0.0, 0.0, 0.0, 0.0, 0.0, 0.0, 0.0, 1.6953709123811922E9, 0.0, 2023-09-22 10:21:52.381
61.0, 5279.571447321349, 5229.0341531079, 5323.447921687117, 5251.22943535202, 5284.689996801615, 5379.081413636376, 5273.022386195945, 5246.312051571853, 0.034, 0.002, 1.002, 192.0, 0.0, 0.0, 0.0, 0.0, 0.0, 0.0, 0.0, 0.0, 0.0, 1.6953709123812387E9, 0.0, 2023-09-22 10:21:52.381
62.0, 5151.6524138036275, 5101.003360867901, 5195.193612002566, 5122.997477411924, 5156.614501072705, 5251.005917907467, 5144.835131744759, 5118.191852354033, 0.034, 0.002, 1.002, 192.0, 0.0, 0.0, 0.0, 0.0, 0.0, 0.0, 0.0, 0.0, 0.0, 1.6953709123812895E9, 0.0, 2023-09-22 10:21:52.381
63.0, 5043.42526715103, 4992.79856595976, 5086.877058372147, 5014.5915168036845, 5048.342650931198, 5142.823474743781, 5036.451522880974, 5010.054112679257, 0.034, 0.002, 1.002, 192.0, 0.0, 0.0, 0.0, 0.0, 0.0, 0.0, 0.0, 0.0, 0.0, 1.6953709123813365E9, 0.0, 2023-09-22 10:21:52.381
64.0, 4914.388646410543, 4808.575488159119, 4960.723812666394, 4888.34886412011, 4922.122349992079, 5016.603173804662, 4910.365332408587, 4884.034977440236, 0.034, 0.002, 1.002, 192.0, 0.0, 0.0, 0.0, 0.0, 0.0, 0.0, 0.0, 0.0, 0.0, 1.695370912381394E9, 0.0, 2023-09-22 10:21:52.381
65.0, 4879.743442504817, 4713.871146901983, 4929.5431291512405, 4857.324642816144, 4890.874611243559, 4985.400138545053, 4879.29640761571, 4852.988404391815, 0.034, 0.002, 1.002, 192.0, 0.0, 0.0, 0.0, 0.0, 0.0, 0.0, 0.0, 0.0, 0.0, 1.6953709123814754E9, 0.0, 2023-09-22 10:21:52.381
66.0, 4992.016254903824, 4931.979469296869, 5035.870377525137, 4963.741298167861, 4997.380673573098, 5091.928552619047, 4985.690711222972, 4959.3603562546205, 0.034, 0.002, 1.002, 192.0, 0.0, 0.0, 0.0, 0.0, 0.0, 0.0, 0.0, 0.0, 0.0, 1.6953709123825488E9, 0.0, 2023-09-22 10:21:52.382
67.0, 5163.320024409298, 5112.5592127512955, 5206.704760397049, 5134.508625806407, 5168.125649467189, 5262.673528513137, 5156.502742350429, 5129.904166448613, 0.032, 0.002, 1.01, 192.0, 1.0, 0.0, 0.0, 16.0, 31.0, 144.0, 0.0, 0.0, 0.0, 1.6953709123826106E9, 0.0, 2023-09-22 10:21:52.382
68.0, 5350.985270856056, 5300.380921409241, 5394.7276347550915, 5322.486796675539, 5356.081468591866, 5450.562292404448, 5344.503264964016, 5317.748226851014, 0.032, 0.002, 1.01, 192.0, 0.0, 0.0, 0.0, 0.0, 0.0, 0.0, 0.0, 0.0, 0.0, 1.6953709123826847E9, 0.0, 2023-09-22 10:21:52.382
69.0, 5359.411878515706, 5308.9639912800785, 5403.221297648108, 5331.069866546377, 5364.575131484882, 5459.07830704192, 5352.996927857033, 5326.264241488486, 0.032, 0.002, 1.01, 192.0, 0.0, 0.0, 0.0, 0.0, 0.0, 0.0, 0.0, 0.0, 0.0, 1.6953709123827536E9, 0.0, 2023-09-22 10:21:52.382
70.0, 5174.40648965913, 5123.936250679047, 5218.059446580344, 5145.885663734158, 5179.413280417119, 5273.938807718612, 5167.812725044814, 5141.214149142998, 0.032, 0.002, 1.01, 192.0, 0.0, 0.0, 0.0, 0.0, 0.0, 0.0, 0.0, 0.0, 0.0, 1.695370912382821E9, 0.0, 2023-09-22 10:21:52.382
71.0, 4979.052243119746, 4919.529547635263, 5022.839310507692, 4950.509065450319, 4984.215496088922, 5078.785726879326, 4972.570237227707, 4946.083420048168, 0.032, 0.002, 1.01, 192.0, 0.0, 0.0, 0.0, 0.0, 0.0, 0.0, 0.0, 0.0, 0.0, 1.6953709123828855E9, 0.0, 2023-09-22 10:21:52.382
72.0, 4850.574415990641, 4560.515828194121, 4900.4858613593415, 4828.177968046423, 4861.81734345166, 4956.342870753154, 4850.328546801633, 4823.931136599915, 0.032, 0.002, 1.01, 192.0, 0.0, 0.0, 0.0, 0.0, 0.0, 0.0, 0.0, 0.0, 0.0, 1.6953709123829443E9, 0.0, 2023-09-22 10:21:52.382
73.0, 4913.762797565794, 4671.313425459079, 4962.579007456185, 4890.293465887722, 4923.932841292959, 5018.391313361087, 4912.376989409565, 4885.912523974482, 0.032, 0.002, 1.01, 192.0, 0.0, 0.0, 0.0, 0.0, 0.0, 0.0, 0.0, 0.0, 0.0, 1.6953709123830092E9, 0.0, 2023-09-22 10:21:52.383
74.0, 5079.121003046155, 5025.1862436755, 5122.684552989549, 5050.354307932175, 5084.083090315234, 5178.563914127817, 5072.393127965108, 5045.861607296659, 0.032, 0.002, 1.01, 192.0, 0.0, 0.0, 0.0, 0.0, 0.0, 0.0, 0.0, 0.0, 0.0, 1.695370912383064E9, 0.0, 2023-09-22 10:21:52.383
75.0, 5192.891382323669, 5142.152922410121, 5236.432580522607, 5164.169390698599, 5197.808766103836, 5292.244886427508, 5186.0741002648, 5159.475524362984, 0.032, 0.002, 1.01, 192.0, 0.0, 0.0, 0.0, 0.0, 0.0, 0.0, 0.0, 0.0, 0.0, 1.695370912383119E9, 0.0, 2023-09-22 10:21:52.383
76.0, 5291.373168393751, 5240.679411969115, 5335.048477059421, 5262.85234246878, 5296.312903918374, 5390.771375986502, 5284.71234854607, 5258.002013921978, 0.032, 0.002, 1.01, 192.0, 0.0, 0.0, 0.0, 0.0, 0.0, 0.0, 0.0, 0.0, 0.0, 1.6953709123831716E9, 0.0, 2023-09-22 10:21:52.383
77.0, 5299.084520230833, 5248.390763806196, 5342.826884129869, 5270.608397794771, 5304.113662733276, 5398.616838290315, 5292.557810849883, 5265.691014014604, 0.034, 0.0, 1.004, 192.0, 1.0, 16.0, 0.0, 0.0, 31.0, 96.0, 0.0, 0.0, 0.0, 1.6953709123832264E9, 0.0, 2023-09-22 10:21:52.383
78.0, 5202.904963839646, 5152.25591090392, 5246.602624249772, 5174.227675703487, 5207.911754597635, 5302.370226665763, 5196.311199225331, 5169.5561611123285, 0.034, 0.0, 1.004, 192.0, 0.0, 0.0, 0.0, 0.0, 0.0, 0.0, 0.0, 0.0, 0.0, 1.6953709123832855E9, 0.0, 2023-09-22 10:21:52.383
79.0, 5062.6701191270495, 5010.590554546185, 5106.166613837077, 5033.881072268614, 5067.632206396128, 5162.135381953166, 5055.852837068181, 5029.343668144187, 0.034, 0.0, 1.004, 192.0, 0.0, 0.0, 0.0, 0.0, 0.0, 0.0, 0.0, 0.0, 0.0, 1.6953709123833504E9, 0.0, 2023-09-22 10:21:52.383
80.0, 4882.202134394901, 4607.029808405615, 4930.012515784802, 4857.794029449705, 4891.455756599397, 4985.981283900891, 4879.698739015906, 4853.413087536465, 0.034, 0.0, 1.004, 192.0, 0.0, 0.0, 0.0, 0.0, 0.0, 0.0, 0.0, 0.0, 0.0, 1.6953709123834045E9, 0.0, 2023-09-22 10:21:52.383
81.0, 4850.686174712918, 4436.3518877448905, 4902.564573593685, 4830.234328536311, 4863.829000452638, 4958.287472520766, 4852.206093335878, 4825.831034878616, 0.034, 0.0, 1.004, 192.0, 0.0, 0.0, 0.0, 0.0, 0.0, 0.0, 0.0, 0.0, 0.0, 1.6953709123834572E9, 0.0, 2023-09-22 10:21:52.383
82.0, 5018.65953429455, 4937.746219366339, 5063.541837160807, 4991.166888614523, 5024.85096750867, 5119.309439576798, 5013.138653414089, 4986.696539723461, 0.034, 0.0, 1.004, 192.0, 0.0, 0.0, 0.0, 0.0, 0.0, 0.0, 0.0, 0.0, 0.0, 1.6953709123836915E9, 0.0, 2023-09-22 10:21:52.383
83.0, 5222.350981515763, 5171.813687302314, 5265.9368832036125, 5193.718396868515, 5227.268365295931, 5321.793892597424, 5215.645458179171, 5189.0468822773555, 0.034, 0.0, 1.004, 192.0, 0.0, 0.0, 0.0, 0.0, 0.0, 0.0, 0.0, 0.0, 0.0, 1.695370912383747E9, 0.0, 2023-09-22 10:21:52.383
84.0, 5377.673253735692, 5327.158311266699, 5421.527376357005, 5349.286538277453, 5382.814154960412, 5477.250275284086, 5371.258303077019, 5344.458561475106, 0.034, 0.0, 1.004, 192.0, 0.0, 0.0, 0.0, 0.0, 0.0, 0.0, 0.0, 0.0, 0.0, 1.6953709123837972E9, 0.0, 2023-09-22 10:21:52.383
85.0, 5332.500378191517, 5281.985435722522, 5376.354500812829, 5304.0913109888215, 5337.618927671781, 5432.099751484365, 5325.973668810567, 5299.263334186475, 0.034, 0.0, 1.004, 192.0, 0.0, 0.0, 0.0, 0.0, 0.0, 0.0, 0.0, 0.0, 0.0, 1.6953709123838484E9, 0.0, 2023-09-22 10:21:52.383
86.0, 5146.042125945345, 5095.527183476351, 5189.672731122105, 5117.387189553641, 5151.026564958878, 5245.507388771462, 5139.269547375387, 5112.760378451393, 0.034, 0.0, 1.004, 192.0, 0.0, 0.0, 0.0, 0.0, 0.0, 0.0, 0.0, 0.0, 0.0, 1.6953709123839028E9, 0.0, 2023-09-22 10:21:52.383
87.0, 5006.880164966603, 4956.275815519788, 5050.220197465444, 4977.867600663615, 5011.663438280039, 5106.166613837077, 4999.839365463182, 4973.464307005919, 0.038, -0.004, 1.006, 192.0, 1.0, 48.0, 255.0, 224.0, 31.0, 112.0, 0.0, 0.0, 0.0, 1.6953709123839767E9, 0.0, 2023-09-22 10:21:52.383
88.0, 4918.881347046059, 4865.147753375501, 4962.534303967274, 4890.248762398811, 4923.910489548503, 5018.480720338907, 4912.198175453923, 4885.8678204855705, 0.038, -0.004, 1.006, 192.0, 0.0, 0.0, 0.0, 0.0, 0.0, 0.0, 0.0, 0.0, 0.0, 1.6953709123840406E9, 0.0, 2023-09-22 10:21:52.384
89.0, 4944.228225258377, 4889.913486231982, 4987.903533924047, 4915.662695844495, 4949.302071249732, 5043.961709017958, 4937.634460644062, 4911.2594021868, 0.038, -0.004, 1.006, 192.0, 0.0, 0.0, 0.0, 0.0, 0.0, 0.0, 0.0, 0.0, 0.0, 1.695370912384104E9, 0.0, 2023-09-22 10:21:52.384
90.0, 5049.795514320793, 4999.124109640612, 5093.001436352902, 5020.827653506715, 5054.467028911952, 5149.037259702356, 5042.844121795192, 5016.267897637832, 0.038, -0.004, 1.006, 192.0, 0.0, 0.0, 0.0, 0.0, 0.0, 0.0, 0.0, 0.0, 0.0, 1.6953709123841548E9, 0.0, 2023-09-22 10:21:52.384
91.0, 5162.582416842272, 5111.9110121620915, 5205.922449341113, 5133.7486664949265, 5167.365690155708, 5261.958272690567, 5155.675727805582, 5129.077151903767, 0.038, -0.004, 1.006, 192.0, 0.0, 0.0, 0.0, 0.0, 0.0, 0.0, 0.0, 0.0, 0.0, 1.6953709123841972E9, 0.0, 2023-09-22 10:21:52.384
92.0, 5315.311886705385, 5264.752240747481, 5359.031898859966, 5286.880467758235, 5320.38573269674, 5414.888908253778, 5308.6734186021595, 5281.9630839780675, 0.038, -0.004, 1.006, 192.0, 0.0, 0.0, 0.0, 0.0, 0.0, 0.0, 0.0, 0.0, 0.0, 1.6953709123842456E9, 0.0, 2023-09-22 10:21:52.384
93.0, 5355.768544169491, 5305.320656933864, 5399.555611557438, 5327.448883944618, 5360.9765006275775, 5455.502027929071, 5349.286538277453, 5322.531500164449, 0.038, -0.004, 1.006, 192.0, 0.0, 0.0, 0.0, 0.0, 0.0, 0.0, 0.0, 0.0, 0.0, 1.6953709123842883E9, 0.0, 2023-09-22 10:21:52.384
94.0, 5227.044847851378, 5176.529905382384, 5270.675453028137, 5198.434614948585, 5232.0739903538215, 5326.599517655315, 5220.316972770331, 5193.718396868515, 0.038, -0.004, 1.006, 192.0, 0.0, 0.0, 0.0, 0.0, 0.0, 0.0, 0.0, 0.0, 0.0, 1.6953709123843417E9, 0.0, 2023-09-22 10:21:52.384
95.0, 5032.919947257036, 4974.827763417693, 5076.662311156072, 5004.309714354243, 5038.016144992846, 5132.5193205498845, 5026.214423920444, 4999.727606740905, 0.038, -0.004, 1.006, 192.0, 0.0, 0.0, 0.0, 0.0, 0.0, 0.0, 0.0, 0.0, 0.0, 1.6953709123844016E9, 0.0, 2023-09-22 10:21:52.384
96.0, 4850.172084590446, 4474.17103936327, 4899.63649507004, 4827.2391947793, 4860.833866695627, 4955.337042252665, 4849.233311323323, 4822.791197632694, 0.038, -0.004, 1.006, 192.0, 0.0, 0.0, 0.0, 0.0, 0.0, 0.0, 0.0, 0.0, 0.0, 1.6953709123844745E9, 0.0, 2023-09-22 10:21:52.384
97.0, 4873.999044179803, 4484.631655768354, 4924.558690137707, 4852.139038102512, 4885.756061763294, 4980.259237320332, 4874.2002098799, 4847.825151422639, 0.044, -0.006, 1.008, 192.0, 1.0, 96.0, 255.0, 208.0, 31.0, 128.0, 0.0, 0.0, 0.0, 1.695370912384518E9, 0.0, 2023-09-22 10:21:52.384
98.0, 5077.198753022999, 5013.898612725569, 5121.119930877678, 5048.879092798125, 5082.496116458907, 5177.0216437604, 5070.895561086602, 5044.319336929243, 0.044, -0.006, 1.008, 192.0, 0.0, 0.0, 0.0, 0.0, 0.0, 0.0, 0.0, 0.0, 0.0, 1.6953709123846407E9, 0.0, 2023-09-22 10:21:52.384
99.0, 5248.927205673123, 5198.322856226308, 5292.468403872062, 5220.249917536965, 5253.844589453291, 5348.280709776964, 5242.221682336532, 5215.444292479074, 0.044, -0.006, 1.008, 192.0, 0.0, 0.0, 0.0, 0.0, 0.0, 0.0, 0.0, 0.0, 0.0, 1.6953709123846881E9, 0.0, 2023-09-22 10:21:52.384
100.0, 5350.627642944771, 5299.956238264589, 5394.235896377075, 5322.084465275343, 5355.634433702759, 5450.048202281976, 5343.989174841545, 5317.14472975072, 0.044, -0.006, 1.008, 192.0, 0.0, 0.0, 0.0, 0.0, 0.0, 0.0, 0.0, 0.0, 0.0, 1.695370912384744E9, 0.0, 2023-09-22 10:21:52.384
101.0, 5304.426587155651, 5253.75518247547, 5348.034840587955, 5275.883409486224, 5309.567488380371, 5403.958905215133, 5297.899877774701, 5271.055432683877, 0.044, -0.006, 1.008, 192.0, 0.0, 0.0, 0.0, 0.0, 0.0, 0.0, 0.0, 0.0, 0.0, 1.695370912384802E9, 0.0, 2023-09-22 10:21:52.384
102.0, 5172.193666958055, 5121.5446140223285, 5215.55605120135, 5143.449323588529, 5177.155754227132, 5271.547171061894, 5165.421088388096, 5138.77780899737, 0.044, -0.006, 1.008, 192.0, 0.0, 0.0, 0.0, 0.0, 0.0, 0.0, 0.0, 0.0, 0.0, 1.6953709123848615E9, 0.0, 2023-09-22 10:21:52.384
103.0, 5061.530180159829, 5010.881127224103, 5104.8702126586695, 5032.584671090206, 5066.268749984354, 5160.816629030303, 5054.578787634228, 5028.024915221324, 0.044, -0.006, 1.008, 192.0, 0.0, 0.0, 0.0, 0.0, 0.0, 0.0, 0.0, 0.0, 0.0, 1.6953709123849204E9, 0.0, 2023-09-22 10:21:52.384
104.0, 4937.343887966143, 4880.972788449859, 4981.287417565277, 4909.046579485725, 4942.820065357693, 5037.3679444036425, 4931.040696029746, 4904.576230594663, 0.044, -0.006, 1.008, 192.0, 0.0, 0.0, 0.0, 0.0, 0.0, 0.0, 0.0, 0.0, 0.0, 1.695370912384977E9, 0.0, 2023-09-22 10:21:52.384
105.0, 4911.795844053727, 4852.6978317138955, 4955.940539352959, 4883.722053017861, 4917.517890634285, 5011.954010957958, 4905.671466072973, 4879.2517041268, 0.044, -0.006, 1.008, 192.0, 0.0, 0.0, 0.0, 0.0, 0.0, 0.0, 0.0, 0.0, 0.0, 1.6953709123850343E9, 0.0, 2023-09-22 10:21:52.385
106.0, 5017.318429627232, 4966.423507502497, 5060.501999914885, 4988.104699624146, 5021.94524072948, 5116.359009308697, 5010.188223145989, 4983.634350733084, 0.044, -0.006, 1.008, 192.0, 0.0, 0.0, 0.0, 0.0, 0.0, 0.0, 0.0, 0.0, 0.0, 1.6953709123850932E9, 0.0, 2023-09-22 10:21:52.385
107.0, 5184.867106064214, 5134.173349639577, 5228.31889728533, 5155.943948739046, 5189.672731122105, 5284.041796212411, 5178.049824005345, 5151.361841125708, 0.04, -0.006, 1.008, 192.0, 1.0, 64.0, 255.0, 208.0, 31.0, 128.0, 0.0, 0.0, 0.0, 1.695370912385142E9, 0.0, 2023-09-22 10:21:52.385
108.0, 5373.448774033639, 5322.86677633128, 5417.280544910496, 5345.039706830944, 5378.544971769449, 5472.9140368597555, 5367.011471630511, 5340.144674795231, 0.04, -0.006, 1.008, 192.0, 0.0, 0.0, 0.0, 0.0, 0.0, 0.0, 0.0, 0.0, 0.0, 1.6953709123852022E9, 0.0, 2023-09-22 10:21:52.385
109.0, 5385.4516608061385, 5334.959070081601, 5429.4175421497275, 5357.132000581265, 5390.726672497592, 5485.073385843442, 5379.01435840301, 5352.304023778918, 0.04, -0.006, 1.008, 192.0, 0.0, 0.0, 0.0, 0.0, 0.0, 0.0, 0.0, 0.0, 0.0, 1.6953709123852468E9, 0.0, 2023-09-22 10:21:52.385
110.0, 5202.435577206084, 5151.9429864815465, 5246.13323761621, 5173.847696047747, 5207.55412668635, 5302.012598754478, 5195.774757358403, 5169.198533201044, 0.04, -0.006, 1.008, 192.0, 0.0, 0.0, 0.0, 0.0, 0.0, 0.0, 0.0, 0.0, 0.0, 1.6953709123852966E9, 0.0, 2023-09-22 10:21:52.385
111.0, 5006.544888799774, 4954.532379452274, 5049.907273043069, 4977.688786707972, 5011.37286560212, 5105.943096392524, 4999.660551507539, 4973.12903083909, 0.04, -0.006, 1.008, 192.0, 0.0, 0.0, 0.0, 0.0, 0.0, 0.0, 0.0, 0.0, 0.0, 1.6953709123853617E9, 0.0, 2023-09-22 10:21:52.385
112.0, 4874.267265113266, 4731.774894210684, 4921.921184291981, 4849.568587490152, 4883.185611150934, 4977.7334901968825, 4871.6074075230845, 4845.120590343546, 0.04, -0.006, 1.008, 192.0, 0.0, 0.0, 0.0, 0.0, 0.0, 0.0, 0.0, 0.0, 0.0, 1.695370912385433E9, 0.0, 2023-09-22 10:21:52.385
113.0, 4934.013478042302, 4791.007017017248, 4981.622693732106, 4909.247745185822, 4942.887120591059, 5037.3679444036425, 4931.331268707665, 4904.73269280585, 0.04, -0.006, 1.008, 192.0, 0.0, 0.0, 0.0, 0.0, 0.0, 0.0, 0.0, 0.0, 0.0, 1.6953709123854892E9, 0.0, 2023-09-22 10:21:52.385
114.0, 5101.204526567999, 5049.192017220499, 5144.678669533571, 5072.326072731742, 5106.01015162589, 5200.535678927384, 5094.29783753131, 5067.676909885038, 0.04, -0.006, 1.008, 192.0, 0.0, 0.0, 0.0, 0.0, 0.0, 0.0, 0.0, 0.0, 0.0, 1.6953709123856254E9, 0.0, 2023-09-22 10:21:52.385
115.0, 5216.472472724017, 5165.778716299381, 5259.991319178501, 5187.661074121127, 5221.32280127082, 5315.870680316768, 5209.655190665149, 5182.967207785512, 0.04, -0.006, 1.008, 192.0, 0.0, 0.0, 0.0, 0.0, 0.0, 0.0, 0.0, 0.0, 0.0, 1.6953709123856745E9, 0.0, 2023-09-22 10:21:52.385
116.0, 5315.468348916573, 5264.774592491936, 5359.188361071153, 5286.813412524869, 5320.452787930106, 5414.955963487144, 5308.829880813347, 5282.097194444799, 0.04, -0.006, 1.008, 192.0, 0.0, 0.0, 0.0, 0.0, 0.0, 0.0, 0.0, 0.0, 0.0, 1.6953709123857229E9, 0.0, 2023-09-22 10:21:52.385
117.0, 5322.039761786433, 5271.390708850707, 5365.804477429924, 5293.407177139185, 5327.001849055511, 5421.572079845915, 5315.4236454276615, 5288.668607314659, 0.038, -0.002, 1.004, 192.0, 1.0, 48.0, 255.0, 240.0, 31.0, 96.0, 0.0, 0.0, 0.0, 1.6953709123857744E9, 0.0, 2023-09-22 10:21:52.385
118.0, 5225.815501906336, 5175.255855948431, 5269.490810572006, 5197.138213770177, 5230.732885686503, 5325.392523454729, 5219.132330314199, 5192.489050923473, 0.038, -0.002, 1.004, 192.0, 0.0, 0.0, 0.0, 0.0, 0.0, 0.0, 0.0, 0.0, 0.0, 1.6953709123858297E9, 0.0, 2023-09-22 10:21:52.385
119.0, 5089.425157240053, 5038.6643455820495, 5132.92165195008, 5060.569055148251, 5094.208430553488, 5188.912771810624, 5082.630226925638, 5056.0316510238235, 0.038, -0.002, 1.004, 192.0, 0.0, 0.0, 0.0, 0.0, 0.0, 0.0, 0.0, 0.0, 0.0, 1.6953709123858807E9, 0.0, 2023-09-22 10:21:52.385
120.0, 4909.806538797205, 4760.385127113477, 4956.40992598652, 4884.01262569578, 4917.7414080788385, 5012.333990613698, 4906.096149217624, 4879.63168378254, 0.038, -0.002, 1.004, 192.0, 0.0, 0.0, 0.0, 0.0, 0.0, 0.0, 0.0, 0.0, 0.0, 1.6953709123859332E9, 0.0, 2023-09-22 10:21:52.385
121.0, 4874.893113958015, 4644.468980368255, 4925.005725026814, 4852.541369502708, 4886.203096652401, 4980.8403826761705, 4874.624893024551, 4848.205131078378, 0.038, -0.002, 1.004, 192.0, 0.0, 0.0, 0.0, 0.0, 0.0, 0.0, 0.0, 0.0, 0.0, 1.6953709128558376E9, 0.0, 2023-09-22 10:21:52.855
122.0, 5036.1385984586, 4973.441955261464, 5080.171535035555, 5007.796586489271, 5041.547720616784, 5136.117951407189, 5029.835406522204, 5003.236830620388, 0.038, -0.002, 1.004, 192.0, 0.0, 0.0, 0.0, 0.0, 0.0, 0.0, 0.0, 0.0, 0.0, 1.6953709128561752E9, 0.0, 2023-09-22 10:21:52.856
123.0, 5239.226548579521, 5188.421033432607, 5282.700691545092, 5210.437501721085, 5243.965118404045, 5338.53534919445, 5232.3645630317405, 5205.676580152104, 0.038, -0.002, 1.004, 192.0, 0.0, 0.0, 0.0, 0.0, 0.0, 0.0, 0.0, 0.0, 0.0, 1.6953709128563576E9, 0.0, 2023-09-22 10:21:52.856
124.0, 5398.63919003477, 5347.990137099045, 5442.493312656083, 5370.25247457653, 5403.645980792759, 5498.104452860886, 5392.157184142731, 5365.379794285273, 0.038, -0.002, 1.004, 192.0, 0.0, 0.0, 0.0, 0.0, 0.0, 0.0, 0.0, 0.0, 0.0, 1.6953709128564827E9, 0.0, 2023-09-22 10:21:52.856
125.0, 5357.8025529149245, 5307.28761044593, 5401.701379025148, 5329.460540945594, 5362.921102395189, 5457.401926207773, 5351.342898767341, 5324.565508909883, 0.038, -0.002, 1.004, 192.0, 0.0, 0.0, 0.0, 0.0, 0.0, 0.0, 0.0, 0.0, 0.0, 1.6953709128565626E9, 0.0, 2023-09-22 10:21:52.856
126.0, 5168.59503610075, 5118.0800936317555, 5212.31504825533, 5139.984803197957, 5173.601826858739, 5268.149705904688, 5161.956567997524, 5135.290936862342, 0.038, -0.002, 1.004, 192.0, 0.0, 0.0, 0.0, 0.0, 0.0, 0.0, 0.0, 0.0, 0.0, 1.6953709128566985E9, 0.0, 2023-09-22 10:21:52.856
127.0, 5024.202766919466, 4973.509010494829, 5067.5427994183065, 4995.190202616478, 5028.941336743991, 5123.556271023306, 5017.206670904955, 4990.65279849205, 0.042, -0.002, 1.002, 192.0, 1.0, 80.0, 255.0, 240.0, 31.0, 80.0, 0.0, 0.0, 0.0, 1.695370912856844E9, 0.0, 2023-09-22 10:21:52.856
128.0, 4934.751085609328, 4883.900866973504, 4977.8452489191595, 4905.425596883964, 4939.2661379893, 5033.881072268614, 4927.576175639174, 4901.044654970724, 0.042, -0.002, 1.002, 192.0, 0.0, 0.0, 0.0, 0.0, 0.0, 0.0, 0.0, 0.0, 0.0, 1.695370912857031E9, 0.0, 2023-09-22 10:21:52.857
129.0, 4965.685899935473, 4914.902736533015, 5008.891821967581, 4936.494521676841, 4970.268007548811, 5064.793534850304, 4958.578045198685, 4932.001821041325, 0.042, -0.002, 1.002, 192.0, 0.0, 0.0, 0.0, 0.0, 0.0, 0.0, 0.0, 0.0, 0.0, 1.695370912857198E9, 0.0, 2023-09-22 10:21:52.857
130.0, 5074.248322754899, 5023.666325052539, 5117.744817464926, 5045.302813685276, 5078.942189090513, 5173.601826858739, 5067.319281973753, 5040.743057816393, 0.042, -0.002, 1.002, 192.0, 0.0, 0.0, 0.0, 0.0, 0.0, 0.0, 0.0, 0.0, 0.0, 1.6953709128576896E9, 0.0, 2023-09-22 10:21:52.857
131.0, 5185.492954908962, 5134.754494995415, 5229.0341531079, 5156.636852817161, 5190.186821244576, 5284.757052034981, 5178.630969361183, 5151.965338226001, 0.042, -0.002, 1.002, 192.0, 0.0, 0.0, 0.0, 0.0, 0.0, 0.0, 0.0, 0.0, 0.0, 1.6953709128577497E9, 0.0, 2023-09-22 10:21:52.857
132.0, 5334.221462514575, 5283.5500578343945, 5377.87441943579, 5305.588877867327, 5339.161198039198, 5433.619670107326, 5327.62769790026, 5300.850308042802, 0.042, -0.002, 1.002, 192.0, 0.0, 0.0, 0.0, 0.0, 0.0, 0.0, 0.0, 0.0, 0.0, 1.6953709128578067E9, 0.0, 2023-09-22 10:21:52.857
133.0, 5377.561495013416, 5326.979497311056, 5421.370914145818, 5349.063020832899, 5382.724747982592, 5477.183220050719, 5371.1241926102875, 5344.257395775008, 0.042, -0.002, 1.002, 192.0, 0.0, 0.0, 0.0, 0.0, 0.0, 0.0, 0.0, 0.0, 0.0, 1.6953709128578603E9, 0.0, 2023-09-22 10:21:52.857
134.0, 5250.380069062719, 5199.753367871448, 5294.010674239477, 5221.702780926559, 5255.409211565163, 5349.979442355567, 5243.786304448403, 5217.031266335401, 0.042, -0.002, 1.002, 192.0, 0.0, 0.0, 0.0, 0.0, 0.0, 0.0, 0.0, 0.0, 0.0, 1.6953709128579097E9, 0.0, 2023-09-22 10:21:52.857
135.0, 5058.177418491533, 5005.539060299285, 5101.62920971265, 5029.276612910821, 5063.027747038334, 5157.597977828739, 5051.3377846882095, 5024.783912275304, 0.042, -0.002, 1.002, 192.0, 0.0, 0.0, 0.0, 0.0, 0.0, 0.0, 0.0, 0.0, 0.0, 1.6953709128579543E9, 0.0, 2023-09-22 10:21:52.857
136.0, 4872.434422067931, 4639.417486121355, 4920.267155202288, 4848.003965378281, 4881.688044272429, 4976.302978551743, 4870.132192389035, 4843.645375209496, 0.042, -0.002, 1.002, 192.0, 0.0, 0.0, 0.0, 0.0, 0.0, 0.0, 0.0, 0.0, 0.0, 1.695370912857998E9, 0.0, 2023-09-22 10:21:52.857
137.0, 4891.947494977414, 4627.660468537863, 4941.188388012456, 4868.858142955082, 4902.564573593685, 4997.201859617456, 4891.053425199202, 4864.566608019663, 0.042, 0.0, 1.004, 192.0, 1.0, 80.0, 0.0, 0.0, 31.0, 96.0, 0.0, 0.0, 0.0, 1.6953709128580408E9, 0.0, 2023-09-22 10:21:52.858
138.0, 5092.800270652803, 5035.579804847218, 5136.58733804075, 5064.190037750011, 5097.963523621979, 5192.556106156839, 5086.318264760765, 5059.697337114494, 0.042, 0.0, 1.004, 192.0, 0.0, 0.0, 0.0, 0.0, 0.0, 0.0, 0.0, 0.0, 0.0, 1.6953709128580863E9, 0.0, 2023-09-22 10:21:52.858
139.0, 5265.780420992425, 5215.243126778976, 5309.6121918692825, 5237.147836345177, 5270.831915239324, 5365.402146029728, 5259.23135986702, 5232.521025242928, 0.042, 0.0, 1.004, 192.0, 0.0, 0.0, 0.0, 0.0, 0.0, 0.0, 0.0, 0.0, 0.0, 1.6953709128581295E9, 0.0, 2023-09-22 10:21:52.858
140.0, 5368.933721653667, 5318.396427440218, 5412.83254776389, 5340.457599217606, 5374.1193263672985, 5468.689557157702, 5362.496419250539, 5335.719029393081, 0.042, 0.0, 1.004, 192.0, 0.0, 0.0, 0.0, 0.0, 0.0, 0.0, 0.0, 0.0, 0.0, 1.6953709128581724E9, 0.0, 2023-09-22 10:21:52.858
141.0, 5321.324505963863, 5270.85426698378, 5365.335090796362, 5292.803680038891, 5326.532462421949, 5421.147396701264, 5314.887203560735, 5288.176868936643, 0.042, 0.0, 1.004, 192.0, 0.0, 0.0, 0.0, 0.0, 0.0, 0.0, 0.0, 0.0, 0.0, 1.695370912858244E9, 0.0, 2023-09-22 10:21:52.858
142.0, 5185.783527586881, 5135.223881628976, 5229.481187997007, 5157.016832472901, 5190.723263111504, 5285.338197390819, 5179.078004250289, 5152.457076604018, 0.042, 0.0, 1.004, 192.0, 0.0, 0.0, 0.0, 0.0, 0.0, 0.0, 0.0, 0.0, 0.0, 1.6953709128583362E9, 0.0, 2023-09-22 10:21:52.858
143.0, 5080.886790858125, 5030.32714490022, 5124.383285568152, 5051.9859852774125, 5085.781822893837, 5180.352053684242, 5074.024805310346, 5047.515636386352, 0.042, 0.0, 1.004, 192.0, 0.0, 0.0, 0.0, 0.0, 0.0, 0.0, 0.0, 0.0, 0.0, 1.6953709128583813E9, 0.0, 2023-09-22 10:21:52.858
144.0, 4962.668414434006, 4912.01936149828, 5006.008446932847, 4933.566443153196, 4967.406984258531, 5062.044270282301, 4955.627614930584, 4929.207852984411, 0.042, 0.0, 1.004, 192.0, 0.0, 0.0, 0.0, 0.0, 0.0, 0.0, 0.0, 0.0, 0.0, 1.6953709128584232E9, 0.0, 2023-09-22 10:21:52.858
145.0, 4938.305012977721, 4887.499497830809, 4981.443879776464, 4909.068931230179, 4942.887120591059, 5037.434999637008, 4931.107751263113, 4904.665637572484, 0.042, 0.0, 1.004, 192.0, 0.0, 0.0, 0.0, 0.0, 0.0, 0.0, 0.0, 0.0, 0.0, 1.6953709128584688E9, 0.0, 2023-09-22 10:21:52.858
146.0, 5040.608947349661, 4989.870487436115, 5083.837221126226, 5011.506976068852, 5045.213406707455, 5139.761285753404, 5033.478740868419, 5006.969571944424, 0.042, 0.0, 1.004, 192.0, 0.0, 0.0, 0.0, 0.0, 0.0, 0.0, 0.0, 0.0, 0.0, 1.6953709128586147E9, 0.0, 2023-09-22 10:21:52.858
147.0, 5200.110995782733, 5149.461942847007, 5243.60749049276, 5171.299597179842, 5205.006027818445, 5299.464499886572, 5193.31606546832, 5166.583379099772, 0.036000000000000004, -0.002, 0.998, 192.0, 1.0, 32.0, 255.0, 240.0, 31.0, 48.0, 0.0, 0.0, 0.0, 1.69537091285866E9, 0.0, 2023-09-22 10:21:52.858
148.0, 5385.228143361586, 5334.601442170316, 5429.059914238443, 5356.72966918107, 5390.234934119575, 5484.760461421069, 5378.656730491725, 5351.834637145357, 0.036000000000000004, -0.002, 0.998, 192.0, 0.0, 0.0, 0.0, 0.0, 0.0, 0.0, 0.0, 0.0, 0.0, 1.6953709128587034E9, 0.0, 2023-09-22 10:21:52.858
149.0, 5400.673198780203, 5350.1135528222985, 5444.527321401515, 5372.219428088597, 5405.836451749379, 5500.339627306417, 5394.347655099351, 5367.458506519617, 0.036000000000000004, -0.002, 0.998, 192.0, 0.0, 0.0, 0.0, 0.0, 0.0, 0.0, 0.0, 0.0, 0.0, 1.6953709128587463E9, 0.0, 2023-09-22 10:21:52.858
150.0, 5219.668772181127, 5169.153829712132, 5263.254673868975, 5191.036187533879, 5224.65321119466, 5319.223441985064, 5213.097359311266, 5186.387024687174, 0.036000000000000004, -0.002, 0.998, 192.0, 0.0, 0.0, 0.0, 0.0, 0.0, 0.0, 0.0, 0.0, 0.0, 1.6953709128587945E9, 0.0, 2023-09-22 10:21:52.858
151.0, 5020.827653506715, 4970.022138359802, 5064.257092983376, 4991.904496181548, 5025.6332785646055, 5120.292916332832, 5013.920964470025, 4987.411795546031, 0.036000000000000004, -0.002, 0.998, 192.0, 0.0, 0.0, 0.0, 0.0, 0.0, 0.0, 0.0, 0.0, 0.0, 1.6953709128588357E9, 0.0, 2023-09-22 10:21:52.858
152.0, 4888.3935676090205, 4807.994342803281, 4934.438161186953, 4862.018509151758, 4895.747291534816, 4990.429281047497, 4884.169087906967, 4857.704622471884, 0.036000000000000004, -0.002, 0.998, 192.0, 0.0, 0.0, 0.0, 0.0, 0.0, 0.0, 0.0, 0.0, 0.0, 1.695370912858876E9, 0.0, 2023-09-22 10:21:52.858
153.0, 4948.922091593992, 4863.761945219272, 4995.301961338754, 4922.949364536925, 4956.700498664439, 5051.315432943754, 4945.099943292134, 4918.54607087923, 0.036000000000000004, -0.002, 0.998, 192.0, 0.0, 0.0, 0.0, 0.0, 0.0, 0.0, 0.0, 0.0, 0.0, 1.69537091285893E9, 0.0, 2023-09-22 10:21:52.858
154.0, 5117.767169209382, 5066.536970917818, 5161.107201708222, 5088.933418862035, 5122.6622012450935, 5217.120673313221, 5111.016942383879, 5084.261904270877, 0.036000000000000004, -0.002, 0.998, 192.0, 0.0, 0.0, 0.0, 0.0, 0.0, 0.0, 0.0, 0.0, 0.0, 1.6953709128589747E9, 0.0, 2023-09-22 10:21:52.858
155.0, 5237.527816000917, 5186.945818298557, 5280.979607222033, 5208.805824375847, 5242.467551525539, 5336.993078827033, 5230.866996153235, 5204.111958040233, 0.036000000000000004, -0.002, 0.998, 192.0, 0.0, 0.0, 0.0, 0.0, 0.0, 0.0, 0.0, 0.0, 0.0, 1.6953709128590055E9, 0.0, 2023-09-22 10:21:52.859
156.0, 5332.478026447061, 5281.873677000246, 5376.041576390455, 5303.8007383109025, 5337.395410227229, 5432.077399739909, 5325.884261832745, 5299.1068719752875, 0.036000000000000004, -0.002, 0.998, 192.0, 0.0, 0.0, 0.0, 0.0, 0.0, 0.0, 0.0, 0.0, 0.0, 1.6953709128590305E9, 0.0, 2023-09-22 10:21:52.859
157.0, 5334.869663103779, 5284.242961912509, 5378.522620024994, 5306.348837178807, 5339.809398628402, 5434.513739885538, 5328.253546745008, 5301.520860376461, 0.036000000000000004, 0.0, 0.998, 192.0, 1.0, 32.0, 0.0, 0.0, 31.0, 48.0, 0.0, 0.0, 0.0, 1.6953709128590548E9, 0.0, 2023-09-22 10:21:52.859
158.0, 5239.539473001894, 5188.935123555079, 5283.23713341202, 5210.9962953324675, 5244.568615504339, 5339.1388462947425, 5232.901004898668, 5206.168318530121, 0.036000000000000004, 0.0, 0.998, 192.0, 0.0, 0.0, 0.0, 0.0, 0.0, 0.0, 0.0, 0.0, 0.0, 1.6953709128590803E9, 0.0, 2023-09-22 10:21:52.859
159.0, 5105.652523714605, 5054.958767289969, 5149.081963191266, 5076.86347685617, 5110.525204005862, 5205.117786540722, 5098.745834677915, 5072.236665753921, 0.036000000000000004, 0.0, 0.998, 192.0, 0.0, 0.0, 0.0, 0.0, 0.0, 0.0, 0.0, 0.0, 0.0, 1.6953709128591042E9, 0.0, 2023-09-22 10:21:52.859
160.0, 4929.811350084705, 4844.114761843057, 4975.453612262441, 4903.145718949523, 4936.919204821492, 5031.511787356351, 4925.229242471367, 4898.764777036283, 0.036000000000000004, 0.0, 0.998, 192.0, 0.0, 0.0, 0.0, 0.0, 0.0, 0.0, 0.0, 0.0, 0.0, 1.6953709128591278E9, 0.0, 2023-09-22 10:21:52.859
161.0, 4892.461585099886, 4769.057603962136, 4940.763704867805, 4868.500515043797, 4902.095186960124, 4996.6877694949835, 4890.472279843364, 4864.164276619467, 0.036000000000000004, 0.0, 0.998, 192.0, 0.0, 0.0, 0.0, 0.0, 0.0, 0.0, 0.0, 0.0, 0.0, 1.6953709128591523E9, 0.0, 2023-09-22 10:21:52.859
162.0, 5047.605043364173, 4992.150365370556, 5091.123889818656, 5019.017162205835, 5052.6341858666165, 5147.226768401476, 5040.921871772036, 5014.502109825863, 0.036000000000000004, 0.0, 0.998, 192.0, 0.0, 0.0, 0.0, 0.0, 0.0, 0.0, 0.0, 0.0, 0.0, 1.6953709128592367E9, 0.0, 2023-09-22 10:21:52.859
163.0, 5249.709516729059, 5198.993408559967, 5293.138956205721, 5221.054580337355, 5254.582197020316, 5349.130076066265, 5243.003993392467, 5216.293658768375, 0.036000000000000004, 0.0, 0.998, 192.0, 0.0, 0.0, 0.0, 0.0, 0.0, 0.0, 0.0, 0.0, 0.0, 1.6953709128592615E9, 0.0, 2023-09-22 10:21:52.859
164.0, 5411.223222163108, 5360.618872716293, 5455.03264129551, 5382.836506704868, 5416.364123387829, 5510.867298944867, 5404.852974993346, 5377.9414746691555, 0.036000000000000004, 0.0, 0.998, 192.0, 0.0, 0.0, 0.0, 0.0, 0.0, 0.0, 0.0, 0.0, 0.0, 1.6953709128592856E9, 0.0, 2023-09-22 10:21:52.859
165.0, 5373.11349786681, 5322.531500164449, 5416.83351002139, 5344.659727175203, 5378.276750835986, 5472.757574648568, 5366.676195463681, 5339.7870468839465, 0.036000000000000004, 0.0, 0.998, 192.0, 0.0, 0.0, 0.0, 0.0, 0.0, 0.0, 0.0, 0.0, 0.0, 1.6953709128593097E9, 0.0, 2023-09-22 10:21:52.859
166.0, 5182.520172896406, 5131.960526938502, 5225.927260628612, 5153.775829526881, 5187.50461190994, 5281.9630839780675, 5175.792297815358, 5149.149018424633, 0.036000000000000004, 0.0, 0.998, 192.0, 0.0, 0.0, 0.0, 0.0, 0.0, 0.0, 0.0, 0.0, 0.0, 1.6953709128593335E9, 0.0, 2023-09-22 10:21:52.859
167.0, 5034.864549024648, 4984.193144344466, 5078.0481193123005, 5005.740225999382, 5039.558415360262, 5134.039239172846, 5027.823749521226, 5001.314580597232, 0.034, 0.0, 0.998, 192.0, 1.0, 16.0, 0.0, 0.0, 31.0, 48.0, 0.0, 0.0, 0.0, 1.6953709128593578E9, 0.0, 2023-09-22 10:21:52.859
168.0, 4942.753010124327, 4892.081605444147, 4985.981283900891, 4913.673390587973, 4947.491579948853, 5041.972403761435, 4935.734562365361, 4909.247745185822, 0.034, 0.0, 0.998, 192.0, 0.0, 0.0, 0.0, 0.0, 0.0, 0.0, 0.0, 0.0, 0.0, 1.6953709128593843E9, 0.0, 2023-09-22 10:21:52.859
169.0, 4977.0852896076785, 4926.346829694132, 5020.425322106519, 4948.072725304691, 4981.846211176659, 5076.259979755876, 4970.089193593168, 4943.5129694358075, 0.034, 0.0, 0.998, 192.0, 0.0, 0.0, 0.0, 0.0, 0.0, 0.0, 0.0, 0.0, 0.0, 1.6953709128594084E9, 0.0, 2023-09-22 10:21:52.859
170.0, 5088.7322531619375, 5038.038496737301, 5132.1616926386, 5059.7867440923155, 5093.537878219829, 5187.906943310135, 5081.825564125248, 5055.159932990066, 0.034, 0.0, 0.998, 192.0, 0.0, 0.0, 0.0, 0.0, 0.0, 0.0, 0.0, 0.0, 0.0, 1.6953709128594327E9, 0.0, 2023-09-22 10:21:52.859
171.0, 5196.400606203152, 5145.818608500792, 5239.964156146545, 5167.6786145780825, 5201.295638238864, 5295.798813795903, 5189.605675888739, 5163.007099986923, 0.034, 0.0, 0.998, 192.0, 0.0, 0.0, 0.0, 0.0, 0.0, 0.0, 0.0, 0.0, 0.0, 1.6953709128594568E9, 0.0, 2023-09-22 10:21:52.859
172.0, 5341.374020740273, 5290.814374782369, 5385.071681150399, 5312.987305282033, 5346.425514987173, 5440.928690544211, 5334.780256125958, 5307.95816277959, 0.034, 0.0, 0.998, 192.0, 0.0, 0.0, 0.0, 0.0, 0.0, 0.0, 0.0, 0.0, 0.0, 1.695370912859481E9, 0.0, 2023-09-22 10:21:52.859
173.0, 5381.808326459924, 5331.226328757564, 5425.684800825692, 5353.443962746139, 5386.926875940189, 5481.3629962638615, 5375.348672312341, 5348.459523732606, 0.034, 0.0, 0.998, 192.0, 0.0, 0.0, 0.0, 0.0, 0.0, 0.0, 0.0, 0.0, 0.0, 1.6953709128595748E9, 0.0, 2023-09-22 10:21:52.859
174.0, 5259.56663603385, 5209.051693564856, 5303.353703421796, 5231.045810108878, 5264.752240747481, 5359.188361071153, 5253.0399266529, 5226.374295517719, 0.034, 0.0, 0.998, 192.0, 0.0, 0.0, 0.0, 0.0, 0.0, 0.0, 0.0, 0.0, 0.0, 1.6953709128596416E9, 0.0, 2023-09-22 10:21:52.859
175.0, 5072.683700643027, 5021.386447118098, 5116.180195353055, 5043.76054331786, 5077.62343616765, 5172.0819082357775, 5065.799363350793, 5039.267842682343, 0.034, 0.0, 0.998, 192.0, 0.0, 0.0, 0.0, 0.0, 0.0, 0.0, 0.0, 0.0, 0.0, 1.6953709128596869E9, 0.0, 2023-09-22 10:21:52.859
176.0, 4886.3372071191325, 4722.722437706285, 4933.5887948976515, 4861.10208762909, 4894.9649804788805, 4989.423452547008, 4883.2526663843, 4856.765849204761, 0.034, 0.002, 1.006, 192.0, 1.0, 16.0, 0.0, 16.0, 31.0, 112.0, 0.0, 0.0, 0.0, 1.6953709128597376E9, 0.0, 2023-09-22 10:21:52.859
177.0, 4900.73173054835, 4703.231716541257, 4949.50323694983, 4877.105936659091, 4910.857070786604, 5005.293191110277, 4899.234163669845, 4872.635587768029, 0.034, 0.002, 1.006, 192.0, 0.0, 0.0, 0.0, 0.0, 0.0, 0.0, 0.0, 0.0, 0.0, 1.6953709128597796E9, 0.0, 2023-09-22 10:21:52.859
178.0, 5100.802195167804, 5045.928662530025, 5144.58926255575, 5072.281369242832, 5105.9877998814345, 5200.423920205107, 5094.208430553488, 5067.587502907218, 0.034, 0.002, 1.006, 192.0, 0.0, 0.0, 0.0, 0.0, 0.0, 0.0, 0.0, 0.0, 0.0, 1.6953709128598192E9, 0.0, 2023-09-22 10:21:52.859
179.0, 5280.778441521936, 5230.107036841755, 5324.431398443151, 5252.1458568746875, 5285.718177046559, 5380.154297370231, 5274.072918185344, 5247.384935305708, 0.034, 0.002, 1.006, 192.0, 0.0, 0.0, 0.0, 0.0, 0.0, 0.0, 0.0, 0.0, 0.0, 1.6953709128599164E9, 0.0, 2023-09-22 10:21:52.859
180.0, 5385.630474761781, 5335.003773570511, 5429.439893894183, 5357.176704070175, 5390.771375986502, 5485.207496310174, 5379.103765380832, 5352.259320290008, 0.034, 0.002, 1.006, 192.0, 0.0, 0.0, 0.0, 0.0, 0.0, 0.0, 0.0, 0.0, 0.0, 1.6953709128599515E9, 0.0, 2023-09-22 10:21:52.859
181.0, 5333.707372392103, 5283.19242992311, 5377.516791524505, 5305.320656933864, 5338.892977105735, 5433.262042196041, 5327.158311266699, 5300.403273153695, 0.034, 0.002, 1.006, 192.0, 0.0, 0.0, 0.0, 0.0, 0.0, 0.0, 0.0, 0.0, 0.0, 1.6953709128599885E9, 0.0, 2023-09-22 10:21:52.859
182.0, 5193.338417212774, 5142.756419510415, 5236.857263667258, 5164.705832565526, 5198.367559715219, 5292.71427306107, 5186.588190387272, 5159.9896144854565, 0.034, 0.002, 1.006, 192.0, 0.0, 0.0, 0.0, 0.0, 0.0, 0.0, 0.0, 0.0, 0.0, 1.695370912860022E9, 0.0, 2023-09-22 10:21:52.860
183.0, 5087.949942106002, 5037.323240914731, 5131.401733327119, 5059.160895247566, 5092.889677630625, 5187.236390976476, 5081.155011791589, 5054.467028911952, 0.034, 0.002, 1.006, 192.0, 0.0, 0.0, 0.0, 0.0, 0.0, 0.0, 0.0, 0.0, 0.0, 1.695370912860057E9, 0.0, 2023-09-22 10:21:52.860
184.0, 4974.425432017498, 4923.731675592861, 5017.720761027427, 4945.457571203419, 4979.275760564299, 5073.689529143516, 4967.429336002986, 4940.942518823447, 0.034, 0.002, 1.006, 192.0, 0.0, 0.0, 0.0, 0.0, 0.0, 0.0, 0.0, 0.0, 0.0, 1.6953709128600938E9, 0.0, 2023-09-22 10:21:52.860
185.0, 4950.442010216953, 4899.63649507004, 4993.647932249061, 4921.362390680599, 4955.158228297023, 5049.549645131784, 4943.401210713531, 4916.914393533993, 0.034, 0.002, 1.006, 192.0, 0.0, 0.0, 0.0, 0.0, 0.0, 0.0, 0.0, 0.0, 0.0, 1.6953709128601286E9, 0.0, 2023-09-22 10:21:52.860
186.0, 5049.884921298614, 4999.168813129522, 5093.157898564088, 5020.894708740081, 5054.578787634228, 5149.037259702356, 5042.844121795192, 5016.312601126743, 0.038, 0.0, 1.006, 192.0, 1.0, 48.0, 0.0, 0.0, 31.0, 112.0, 0.0, 0.0, 0.0, 1.6953709128601658E9, 0.0, 2023-09-22 10:21:52.860
187.0, 5209.297562753864, 5158.5814545847725, 5252.682298741615, 5180.486164150973, 5214.12553955621, 5308.606363368794, 5202.45792895054, 5175.747594326448, 0.038, 0.0, 1.006, 192.0, 0.0, 0.0, 0.0, 0.0, 0.0, 0.0, 0.0, 0.0, 0.0, 1.6953709128602026E9, 0.0, 2023-09-22 10:21:52.860
188.0, 5397.253381878541, 5346.626680687271, 5440.995745777577, 5368.799611186935, 5402.327227869896, 5496.785699938024, 5390.68196900868, 5363.882227406768, 0.038, 0.0, 1.006, 192.0, 0.0, 0.0, 0.0, 0.0, 0.0, 0.0, 0.0, 0.0, 0.0, 1.6953709128602383E9, 0.0, 2023-09-22 10:21:52.860
189.0, 5415.35829488734, 5364.843352418346, 5459.324176230929, 5387.083338151377, 5420.700361812158, 5515.1141303913755, 5409.010399462032, 5382.1659543712085, 0.038, 0.0, 1.006, 192.0, 0.0, 0.0, 0.0, 0.0, 0.0, 0.0, 0.0, 0.0, 0.0, 1.6953709128602717E9, 0.0, 2023-09-22 10:21:52.860
190.0, 5236.656097967159, 5186.029396775889, 5280.309054888375, 5208.023513319911, 5241.774647447425, 5336.166064282187, 5230.0176298639335, 5203.329646984297, 0.038, 0.0, 1.006, 192.0, 0.0, 0.0, 0.0, 0.0, 0.0, 0.0, 0.0, 0.0, 0.0, 1.695370912860314E9, 0.0, 2023-09-22 10:21:52.860
191.0, 5034.819845535737, 4984.08138562219, 5078.182229779033, 5005.807281232748, 5039.670174082538, 5134.173349639577, 5027.823749521226, 5001.292228852776, 0.038, 0.0, 1.006, 192.0, 0.0, 0.0, 0.0, 0.0, 0.0, 0.0, 0.0, 0.0, 0.0, 1.6953709128603537E9, 0.0, 2023-09-22 10:21:52.860
192.0, 4900.284695659244, 4836.045782094691, 4945.144646781046, 4872.769698234761, 4906.610239340096, 5001.113414897134, 4894.830870012149, 4868.411108065976, 0.038, 0.0, 1.006, 192.0, 0.0, 0.0, 0.0, 0.0, 0.0, 0.0, 0.0, 0.0, 0.0, 1.6953709128603897E9, 0.0, 2023-09-22 10:21:52.860
193.0, 4958.645100432051, 4892.483936844342, 5003.817975976226, 4931.487730918852, 4965.283568535277, 5059.6749853700385, 4953.50419920733, 4927.062085516702, 0.038, 0.0, 1.006, 192.0, 0.0, 0.0, 0.0, 0.0, 0.0, 0.0, 0.0, 0.0, 0.0, 1.695370912860426E9, 0.0, 2023-09-22 10:21:52.860
194.0, 5127.668992003083, 5076.818773367259, 5171.053727990834, 5098.790538166826, 5132.496968805429, 5226.977792618012, 5120.807006455303, 5094.141375320122, 0.038, 0.0, 1.006, 192.0, 0.0, 0.0, 0.0, 0.0, 0.0, 0.0, 0.0, 0.0, 0.0, 1.6953709128604643E9, 0.0, 2023-09-22 10:21:52.860
195.0, 5249.508351028961, 5198.926353326601, 5293.09425271681, 5220.898118126169, 5254.51514178695, 5349.018317343988, 5242.80282769237, 5216.025437834912, 0.038, 0.0, 1.006, 192.0, 0.0, 0.0, 0.0, 0.0, 0.0, 0.0, 0.0, 0.0, 0.0, 1.695370912860567E9, 0.0, 2023-09-22 10:21:52.860
196.0, 5341.128151551265, 5290.501450359995, 5384.8034602169355, 5312.652029115204, 5346.269052775986, 5440.615766121837, 5334.556738681405, 5307.667590101671, 0.044, -0.006, 1.006, 192.0, 1.0, 96.0, 255.0, 208.0, 31.0, 112.0, 0.0, 0.0, 0.0, 1.6953709128606048E9, 0.0, 2023-09-22 10:21:52.860
197.0, 5339.630584672759, 5289.137993948221, 5383.283541593974, 5311.132110492243, 5344.704430664115, 5439.207606221153, 5333.081523547355, 5306.259430200986, 0.044, -0.006, 1.006, 192.0, 0.0, 0.0, 0.0, 0.0, 0.0, 0.0, 0.0, 0.0, 0.0, 1.6953709128606443E9, 0.0, 2023-09-22 10:21:52.860
198.0, 5244.367449804241, 5193.807803846336, 5287.9533514920895, 5215.824272134813, 5249.307185328864, 5343.877416119268, 5237.661926467648, 5210.951591843556, 0.044, -0.006, 1.006, 192.0, 0.0, 0.0, 0.0, 0.0, 0.0, 0.0, 0.0, 0.0, 0.0, 1.695370912860684E9, 0.0, 2023-09-22 10:21:52.860
199.0, 5111.933363906546, 5061.396069693097, 5155.563969083306, 5083.256075770388, 5116.850747686714, 5211.353923243752, 5105.272544058865, 5078.562209434773, 0.044, -0.006, 1.006, 192.0, 0.0, 0.0, 0.0, 0.0, 0.0, 0.0, 0.0, 0.0, 0.0, 1.695370912860722E9, 0.0, 2023-09-22 10:21:52.860
200.0, 4938.9308618224695, 4877.083584914635, 4983.679054221994, 4911.4605678868975, 4945.010536314313, 5039.513711871352, 4933.432332686464, 4906.856108529104, 0.044, -0.006, 1.006, 192.0, 0.0, 0.0, 0.0, 0.0, 0.0, 0.0, 0.0, 0.0, 0.0, 1.695370912860762E9, 0.0, 2023-09-22 10:21:52.860
201.0, 4903.548050349718, 4832.3353925151105, 4949.279719505277, 4877.083584914635, 4910.678256830962, 5005.092025410178, 4899.077701458657, 4872.523829045753, 0.044, -0.006, 1.006, 192.0, 0.0, 0.0, 0.0, 0.0, 0.0, 0.0, 0.0, 0.0, 0.0, 1.6953709128607988E9, 0.0, 2023-09-22 10:21:52.860
202.0, 5053.304738200276, 5001.783967230794, 5096.622418954661, 5024.448636108475, 5058.043308024801, 5152.501780092929, 5046.420400908041, 5019.7547697728605, 0.044, -0.006, 1.006, 192.0, 0.0, 0.0, 0.0, 0.0, 0.0, 0.0, 0.0, 0.0, 0.0, 1.6953709128608344E9, 0.0, 2023-09-22 10:21:52.860
203.0, 5255.9009499431795, 5205.318952240819, 5299.5762586088495, 5227.290717040386, 5260.7736302344365, 5355.2768057914745, 5249.173074862132, 5222.418036749129, 0.044, -0.006, 1.006, 192.0, 0.0, 0.0, 0.0, 0.0, 0.0, 0.0, 0.0, 0.0, 0.0, 1.695370912860872E9, 0.0, 2023-09-22 10:21:52.860
204.0, 5422.287335668485, 5371.817096688402, 5466.208513523164, 5393.945323699156, 5427.405885148751, 5521.842005472423, 5415.827681520901, 5389.0279399189885, 0.044, -0.006, 1.006, 192.0, 0.0, 0.0, 0.0, 0.0, 0.0, 0.0, 0.0, 0.0, 0.0, 1.695370912860914E9, 0.0, 2023-09-22 10:21:52.860
205.0, 5387.217448618108, 5336.680154404659, 5431.160978217242, 5358.897788393234, 5392.358349842829, 5486.816821910957, 5380.82484970389, 5353.935701124156, 0.044, -0.006, 1.006, 192.0, 0.0, 0.0, 0.0, 0.0, 0.0, 0.0, 0.0, 0.0, 0.0, 1.69537091286095E9, 0.0, 2023-09-22 10:21:52.860
206.0, 5196.7358823699815, 5146.131532923167, 5240.433542780107, 5168.080945978278, 5201.675617894604, 5296.156441707188, 5190.03035903339, 5163.342376153752, 0.034, -0.004, 1.008, 192.0, 1.0, 16.0, 255.0, 224.0, 31.0, 128.0, 0.0, 0.0, 0.0, 1.6953709128609838E9, 0.0, 2023-09-22 10:21:52.860
207.0, 5043.693488084494, 4993.111490382134, 5087.212334538977, 5014.792682503782, 5048.454409653475, 5143.046992188334, 5036.764447303349, 5010.32233361272, 0.034, -0.004, 1.008, 192.0, 0.0, 0.0, 0.0, 0.0, 0.0, 0.0, 0.0, 0.0, 0.0, 1.6953709128610253E9, 0.0, 2023-09-22 10:21:52.861
208.0, 4949.4361817164645, 4898.8988875030145, 4992.865621193126, 4920.468320902386, 4954.2194550299, 5048.789685820304, 4942.484789190864, 4916.087378989146, 0.034, -0.004, 1.008, 192.0, 0.0, 0.0, 0.0, 0.0, 0.0, 0.0, 0.0, 0.0, 0.0, 1.6953709128610659E9, 0.0, 2023-09-22 10:21:52.861
209.0, 4984.640179233573, 4934.080533275668, 5028.047266965779, 4955.739373652861, 4989.423452547008, 5083.9713315929575, 4977.711138452428, 4951.246673017344, 0.034, -0.004, 1.008, 192.0, 0.0, 0.0, 0.0, 0.0, 0.0, 0.0, 0.0, 0.0, 0.0, 1.695370912861106E9, 0.0, 2023-09-22 10:21:52.861
210.0, 5100.578677723251, 5050.063735254256, 5144.231634644465, 5071.946093076002, 5105.540764992329, 5199.976885316001, 5093.828450897748, 5067.274578484843, 0.034, -0.004, 1.008, 192.0, 0.0, 0.0, 0.0, 0.0, 0.0, 0.0, 0.0, 0.0, 0.0, 1.6953709128611424E9, 0.0, 2023-09-22 10:21:52.861
211.0, 5210.146929043166, 5159.587283085261, 5253.822237708836, 5181.670806607104, 5215.220775034521, 5309.567488380371, 5203.463757451029, 5176.842829804758, 0.034, -0.004, 1.008, 192.0, 0.0, 0.0, 0.0, 0.0, 0.0, 0.0, 0.0, 0.0, 0.0, 1.695370912861263E9, 0.0, 2023-09-22 10:21:52.861
212.0, 5352.415782501195, 5301.878488287746, 5396.202849889141, 5324.096122276321, 5357.579035470371, 5451.903397071766, 5345.844369631335, 5319.1787384961535, 0.034, -0.004, 1.008, 192.0, 0.0, 0.0, 0.0, 0.0, 0.0, 0.0, 0.0, 0.0, 0.0, 1.6953709128612988E9, 0.0, 2023-09-22 10:21:52.861
213.0, 5394.9064487107335, 5344.503264964016, 5438.849978309868, 5366.855009419323, 5400.248515635552, 5494.595228981403, 5388.558553285427, 5361.7364599390585, 0.034, -0.004, 1.008, 192.0, 0.0, 0.0, 0.0, 0.0, 0.0, 0.0, 0.0, 0.0, 0.0, 1.6953709128613334E9, 0.0, 2023-09-22 10:21:52.861
214.0, 5274.966987963556, 5224.474397239018, 5318.776407095958, 5246.624975994227, 5280.063185699366, 5374.544009511949, 5268.440278582607, 5241.729943958515, 0.034, -0.004, 1.008, 192.0, 0.0, 0.0, 0.0, 0.0, 0.0, 0.0, 0.0, 0.0, 0.0, 1.6953709128613715E9, 0.0, 2023-09-22 10:21:52.861
215.0, 5087.6146659391725, 5036.876206025625, 5131.245271115932, 5059.004433036379, 5092.599104952706, 5187.146983998655, 5080.953846091491, 5054.355270189675, 0.034, -0.004, 1.008, 192.0, 0.0, 0.0, 0.0, 0.0, 0.0, 0.0, 0.0, 0.0, 0.0, 1.6953709128614073E9, 0.0, 2023-09-22 10:21:52.861
216.0, 4897.133099691046, 4784.927342525404, 4943.602376413629, 4871.4285935674425, 4905.090320717135, 4999.504089296352, 4893.310951389188, 4866.891189443015, 0.038, -0.002, 1.01, 192.0, 1.0, 48.0, 255.0, 240.0, 31.0, 144.0, 0.0, 0.0, 0.0, 1.6953709128614447E9, 0.0, 2023-09-22 10:21:52.861
217.0, 4909.314800419188, 4768.789383028672, 4957.326347509187, 4885.085509429635, 4918.702533090417, 5013.049246436268, 4907.012570740291, 4880.637512283029, 0.038, -0.002, 1.01, 192.0, 0.0, 0.0, 0.0, 0.0, 0.0, 0.0, 0.0, 0.0, 0.0, 1.6953709128614855E9, 0.0, 2023-09-22 10:21:52.861
218.0, 5107.552421993306, 5054.265863211855, 5151.339489381253, 5079.121003046155, 5112.760378451393, 5207.084740052788, 5101.025712612357, 5074.449488454997, 0.038, -0.002, 1.01, 192.0, 0.0, 0.0, 0.0, 0.0, 0.0, 0.0, 0.0, 0.0, 0.0, 1.6953709128615203E9, 0.0, 2023-09-22 10:21:52.861
219.0, 5286.165211935665, 5235.6502694666715, 5329.952279323612, 5257.6667377551485, 5291.350816649297, 5385.652826506237, 5279.660854299171, 5252.972871419534, 0.038, -0.002, 1.01, 192.0, 0.0, 0.0, 0.0, 0.0, 0.0, 0.0, 0.0, 0.0, 0.0, 1.695370912861544E9, 0.0, 2023-09-22 10:21:52.861
220.0, 5393.677102765692, 5343.251567274519, 5437.687687598192, 5365.49155300755, 5398.907410968234, 5493.343531291906, 5387.373910829296, 5360.574169227382, 0.038, -0.002, 1.01, 192.0, 0.0, 0.0, 0.0, 0.0, 0.0, 0.0, 0.0, 0.0, 0.0, 1.695370912861567E9, 0.0, 2023-09-22 10:21:52.861
221.0, 5341.508131207005, 5290.970836993556, 5385.384605572773, 5313.210822726586, 5346.626680687271, 5441.085152755399, 5335.093180548332, 5308.338142435329, 0.038, -0.002, 1.01, 192.0, 0.0, 0.0, 0.0, 0.0, 0.0, 0.0, 0.0, 0.0, 0.0, 1.6953709128615897E9, 0.0, 2023-09-22 10:21:52.861
222.0, 5198.725187626504, 5148.187893413055, 5242.422848036629, 5170.226713445987, 5203.799033617858, 5298.212802197076, 5192.042016034367, 5165.510495365917, 0.038, -0.002, 1.01, 192.0, 0.0, 0.0, 0.0, 0.0, 0.0, 0.0, 0.0, 0.0, 0.0, 1.695370912861612E9, 0.0, 2023-09-22 10:21:52.861
223.0, 5090.810965396281, 5040.251319438376, 5134.374515339675, 5062.088973771211, 5095.7730526653595, 5190.276228222398, 5083.993683337412, 5057.6186248801505, 0.038, -0.002, 1.01, 192.0, 0.0, 0.0, 0.0, 0.0, 0.0, 0.0, 0.0, 0.0, 0.0, 1.6953709128616345E9, 0.0, 2023-09-22 10:21:52.861
224.0, 4980.035719875779, 4929.45372217342, 5023.3981041190755, 4951.090210806156, 4984.863696678126, 5079.38922397962, 4973.106679094634, 4946.6198619150955, 0.038, -0.002, 1.01, 192.0, 0.0, 0.0, 0.0, 0.0, 0.0, 0.0, 0.0, 0.0, 0.0, 1.695370912861657E9, 0.0, 2023-09-22 10:21:52.861
225.0, 4962.6460626895505, 4911.997009753824, 5005.89668821057, 4933.611146642107, 4967.31757728071, 5061.887808071114, 4955.560559697218, 4929.073742517679, 0.038, -0.002, 1.01, 192.0, 0.0, 0.0, 0.0, 0.0, 0.0, 0.0, 0.0, 0.0, 0.0, 1.695370912861679E9, 0.0, 2023-09-22 10:21:52.861
226.0, 5061.95486330448, 5011.238755135388, 5105.339599292231, 5033.009354234857, 5066.671081384549, 5161.196608686043, 5055.003470778879, 5028.427246621519, 0.034, -0.002, 1.01, 192.0, 1.0, 16.0, 255.0, 240.0, 31.0, 144.0, 0.0, 0.0, 0.0, 1.6953709128617013E9, 0.0, 2023-09-22 10:21:52.861
227.0, 5216.964211102034, 5166.40456514413, 5260.594816278794, 5188.331626454786, 5221.903946626657, 5316.407122183696, 5210.213984276532, 5183.54835314135, 0.034, -0.002, 1.01, 192.0, 0.0, 0.0, 0.0, 0.0, 0.0, 0.0, 0.0, 0.0, 0.0, 1.6953709128617692E9, 0.0, 2023-09-22 10:21:52.861
228.0, 5401.991951703067, 5351.432305745162, 5445.868426068834, 5373.672291478192, 5407.199908161153, 5501.680731973735, 5395.644056277759, 5368.732555953569, 0.034, -0.002, 1.01, 192.0, 0.0, 0.0, 0.0, 0.0, 0.0, 0.0, 0.0, 0.0, 0.0, 1.6953709128617923E9, 0.0, 2023-09-22 10:21:52.861
229.0, 5424.410751391739, 5373.985215900567, 5468.51074320206, 5396.314608611418, 5429.797521805468, 5524.255993873596, 5418.2640216665295, 5391.464280064617, 0.034, -0.002, 1.01, 192.0, 0.0, 0.0, 0.0, 0.0, 0.0, 0.0, 0.0, 0.0, 0.0, 1.6953709128618145E9, 0.0, 2023-09-22 10:21:52.861
230.0, 5246.289699827397, 5195.864164336224, 5290.1214707042545, 5217.858280880247, 5251.542359774395, 5345.956128353611, 5239.807693935358, 5213.164414544633, 0.034, -0.002, 1.01, 192.0, 0.0, 0.0, 0.0, 0.0, 0.0, 0.0, 0.0, 0.0, 0.0, 1.6953709128618371E9, 0.0, 2023-09-22 10:21:52.861
231.0, 5042.0618107392565, 4991.569220014718, 5085.535953704829, 5013.205708647455, 5047.090953241701, 5141.415314843097, 5035.177473447022, 5008.713008011939, 0.034, -0.002, 1.01, 192.0, 0.0, 0.0, 0.0, 0.0, 0.0, 0.0, 0.0, 0.0, 0.0, 1.6953709128618596E9, 0.0, 2023-09-22 10:21:52.861
232.0, 4903.525698605264, 4846.506398499775, 4947.625690415584, 4875.273093613755, 4909.292448674732, 5003.6168102761285, 4897.378968880054, 4870.959206933881, 0.034, -0.002, 1.01, 192.0, 0.0, 0.0, 0.0, 0.0, 0.0, 0.0, 0.0, 0.0, 0.0, 1.6953709128618817E9, 0.0, 2023-09-22 10:21:52.861
233.0, 4962.891931878559, 4905.067968972679, 5007.170737644522, 4934.840492587148, 4968.6363302035725, 5063.072450527246, 4956.856960875626, 4930.370143696087, 0.034, -0.002, 1.01, 192.0, 0.0, 0.0, 0.0, 0.0, 0.0, 0.0, 0.0, 0.0, 0.0, 1.6953709128619187E9, 0.0, 2023-09-22 10:21:52.861
234.0, 5139.358954353208, 5088.799308395303, 5182.855449063236, 5110.502852261407, 5144.186931155555, 5238.600699734771, 5132.474617060973, 5105.943096392524, 0.034, -0.002, 1.01, 192.0, 0.0, 0.0, 0.0, 0.0, 0.0, 0.0, 0.0, 0.0, 0.0, 1.695370912861946E9, 0.0, 2023-09-22 10:21:52.861
235.0, 5262.673528513137, 5212.002123832956, 5306.259430200986, 5233.929185143613, 5267.61326403776, 5361.937625639156, 5255.94565343209, 5229.280022296908, 0.034, -0.002, 1.01, 192.0, 0.0, 0.0, 0.0, 0.0, 0.0, 0.0, 0.0, 0.0, 0.0, 1.6953709128619685E9, 0.0, 2023-09-22 10:21:52.861
236.0, 5354.829770902368, 5304.158366222187, 5398.527431312494, 5326.219537999576, 5359.903616893723, 5454.1832750062085, 5348.258358032508, 5321.503319919506, 0.034, -0.006, 1.012, 192.0, 1.0, 16.0, 255.0, 208.0, 31.0, 160.0, 0.0, 0.0, 0.0, 1.695370912861991E9, 0.0, 2023-09-22 10:21:52.861
237.0, 5346.939605109645, 5296.424662640651, 5390.749024242047, 5318.396427440218, 5352.102858078821, 5446.538978402493, 5340.412895728695, 5313.680209360148, 0.034, -0.006, 1.012, 192.0, 0.0, 0.0, 0.0, 0.0, 0.0, 0.0, 0.0, 0.0, 0.0, 1.6953709128620152E9, 0.0, 2023-09-22 10:21:52.862
238.0, 5246.580272505316, 5196.065330036322, 5290.344988148808, 5218.037094835889, 5251.810580707858, 5346.112590564799, 5240.031211379911, 5213.298525011364, 0.034, -0.006, 1.012, 192.0, 0.0, 0.0, 0.0, 0.0, 0.0, 0.0, 0.0, 0.0, 0.0, 1.6953709128620372E9, 0.0, 2023-09-22 10:21:52.862
239.0, 5121.321096577775, 5070.783802364326, 5164.951701754535, 5092.53204971934, 5126.327887335764, 5220.7416559149815, 5114.637924985638, 5088.061700828279, 0.034, -0.006, 1.012, 192.0, 0.0, 0.0, 0.0, 0.0, 0.0, 0.0, 0.0, 0.0, 0.0, 1.695370912862059E9, 0.0, 2023-09-22 10:21:52.862
240.0, 4953.459495718419, 4901.379931137554, 4996.955990428447, 4924.469283159886, 4958.376879498587, 5052.812999822259, 4946.575158426185, 4920.155396480012, 0.034, -0.006, 1.012, 192.0, 0.0, 0.0, 0.0, 0.0, 0.0, 0.0, 0.0, 0.0, 0.0, 1.6953709128620818E9, 0.0, 2023-09-22 10:21:52.862
241.0, 4917.964925523392, 4865.214808608867, 4961.349661511143, 4888.930009475948, 4922.815254070193, 5017.251374393866, 4911.035884742247, 4884.638474540529, 0.034, -0.006, 1.012, 192.0, 0.0, 0.0, 0.0, 0.0, 0.0, 0.0, 0.0, 0.0, 0.0, 1.6953709133351264E9, 0.0, 2023-09-22 10:21:53.335
242.0, 5063.184209249522, 5012.401045847064, 5106.434834770541, 5034.104589713167, 5067.878075585137, 5162.314195908809, 5056.165761490555, 5029.611889077651, 0.034, -0.006, 1.012, 192.0, 0.0, 0.0, 0.0, 0.0, 0.0, 0.0, 0.0, 0.0, 0.0, 1.6953709133352363E9, 0.0, 2023-09-22 10:21:53.335
243.0, 5262.89704595769, 5212.27034476642, 5306.482947645539, 5234.2421095659865, 5267.8814849712235, 5362.317605294897, 5256.303281343375, 5229.503539741461, 0.034, -0.006, 1.012, 192.0, 0.0, 0.0, 0.0, 0.0, 0.0, 0.0, 0.0, 0.0, 0.0, 1.6953709133354137E9, 0.0, 2023-09-22 10:21:53.335
244.0, 5431.630364850804, 5381.0483671484435, 5475.529190961027, 5403.333056370385, 5436.860673053346, 5531.274441632562, 5425.327172914407, 5398.415672590217, 0.034, -0.006, 1.012, 192.0, 0.0, 0.0, 0.0, 0.0, 0.0, 0.0, 0.0, 0.0, 0.0, 1.6953709133354769E9, 0.0, 2023-09-22 10:21:53.335
245.0, 5398.482727823583, 5347.967785354589, 5442.426257422717, 5370.163067598709, 5403.713036026124, 5498.171508094252, 5392.179535887187, 5365.245683818542, 0.034, -0.006, 1.012, 192.0, 0.0, 0.0, 0.0, 0.0, 0.0, 0.0, 0.0, 0.0, 0.0, 1.6953709133355377E9, 0.0, 2023-09-22 10:21:53.335
246.0, 5206.0118563189335, 5155.474562105484, 5249.642461495693, 5177.334568182775, 5211.018647076923, 5305.544174378416, 5199.328684726797, 5172.59599835825, 0.036000000000000004, 0.0, 1.006, 192.0, 1.0, 32.0, 0.0, 0.0, 31.0, 112.0, 0.0, 0.0, 0.0, 1.6953709133355732E9, 0.0, 2023-09-22 10:21:53.335
247.0, 5049.013203264857, 4998.475909051408, 5092.353235763698, 5020.1347494286, 5053.8635318116585, 5148.456114346518, 5042.0618107392565, 5015.552641815262, 0.036000000000000004, 0.0, 1.006, 192.0, 0.0, 0.0, 0.0, 0.0, 0.0, 0.0, 0.0, 0.0, 0.0, 1.6953709133356037E9, 0.0, 2023-09-22 10:21:53.335
248.0, 4957.080478320179, 4906.453777128909, 5000.264048607833, 4928.02321052828, 4961.751992911339, 5056.277520212832, 4949.972623583391, 4923.5528616372185, 0.036000000000000004, 0.0, 1.006, 192.0, 0.0, 0.0, 0.0, 0.0, 0.0, 0.0, 0.0, 0.0, 0.0, 1.6953709133356311E9, 0.0, 2023-09-22 10:21:53.335
249.0, 4996.419548561519, 4945.725792136883, 5039.737229315905, 4967.406984258531, 5001.046359663768, 5095.661293943083, 4989.378749058098, 4962.891931878559, 0.036000000000000004, 0.0, 1.006, 192.0, 0.0, 0.0, 0.0, 0.0, 0.0, 0.0, 0.0, 0.0, 0.0, 1.6953709133356576E9, 0.0, 2023-09-22 10:21:53.335
250.0, 5112.827433684759, 5062.133677260123, 5156.346280139242, 5083.881924615136, 5117.588355253739, 5212.158586044144, 5105.898392903614, 5079.322168746254, 0.036000000000000004, 0.0, 1.006, 192.0, 0.0, 0.0, 0.0, 0.0, 0.0, 0.0, 0.0, 0.0, 0.0, 1.6953709133356843E9, 0.0, 2023-09-22 10:21:53.335
251.0, 5219.22173729202, 5168.460925634018, 5262.85234246878, 5190.477393922495, 5224.094417583277, 5318.57524139586, 5212.404455233152, 5185.716472353515, 0.036000000000000004, 0.0, 1.006, 192.0, 0.0, 0.0, 0.0, 0.0, 0.0, 0.0, 0.0, 0.0, 0.0, 1.6953709133357098E9, 0.0, 2023-09-22 10:21:53.335
252.0, 5355.34386102484, 5304.694808089114, 5399.153280157242, 5326.823035099868, 5360.373003527285, 5454.898530828778, 5348.750096410525, 5321.9950582975225, 0.036000000000000004, 0.0, 1.006, 192.0, 0.0, 0.0, 0.0, 0.0, 0.0, 0.0, 0.0, 0.0, 0.0, 1.6953709133357358E9, 0.0, 2023-09-22 10:21:53.335
253.0, 5396.44871907815, 5345.82201788688, 5440.325193443918, 5368.129058853276, 5401.589620302871, 5496.092795859909, 5389.87730620829, 5363.1446198397425, 0.036000000000000004, 0.0, 1.006, 192.0, 0.0, 0.0, 0.0, 0.0, 0.0, 0.0, 0.0, 0.0, 0.0, 1.6953709133357618E9, 0.0, 2023-09-22 10:21:53.335
254.0, 5280.040833954911, 5229.414132763641, 5323.693790876126, 5251.542359774395, 5285.09232820181, 5379.506096781028, 5273.357662362774, 5246.692031227592, 0.036000000000000004, 0.0, 1.006, 192.0, 0.0, 0.0, 0.0, 0.0, 0.0, 0.0, 0.0, 0.0, 0.0, 1.6953709133357873E9, 0.0, 2023-09-22 10:21:53.335
255.0, 5097.896468388613, 5047.202711963977, 5141.370611354186, 5069.152125019089, 5102.8138521687815, 5197.249972492454, 5091.034482840834, 5064.435906939019, 0.036000000000000004, 0.0, 1.006, 192.0, 0.0, 0.0, 0.0, 0.0, 0.0, 0.0, 0.0, 0.0, 0.0, 1.695370913335812E9, 0.0, 2023-09-22 10:21:53.335
0.0, 4910.231221941855, 4825.42870347842, 4956.02994633078, 4883.722053017861, 4917.4508354009195, 5011.909307469047, 4905.716169561883, 4879.2517041268, 0.028, 0.002, 1.004, 192.0, 0.0, 224.0, 0.0, 16.0, 31.0, 96.0, 0.0, 0.0, 0.0, 1.6953709133358364E9, 0.0, 2023-09-22 10:21:53.335
1.0, 4914.835681299649, 4809.983648059803, 4961.953158611436, 4889.689968787428, 4923.3740476815765, 5017.832519749703, 4911.684085331451, 4885.241971640822, 0.028, 0.002, 1.004, 192.0, 0.0, 0.0, 0.0, 0.0, 0.0, 0.0, 0.0, 0.0, 0.0, 1.6953709133358693E9, 0.0, 2023-09-22 10:21:53.335
2.0, 5108.245326071421, 5055.80813357927, 5151.764172525904, 5079.545686190807, 5113.162709851588, 5207.643533664172, 5101.495099245918, 5074.829468110736, 0.028, 0.002, 1.004, 192.0, 0.0, 0.0, 0.0, 0.0, 0.0, 0.0, 0.0, 0.0, 0.0, 1.6953709133359163E9, 0.0, 2023-09-22 10:21:53.335
3.0, 5292.133127705232, 5241.551130002872, 5335.8531398598125, 5263.56759829135, 5297.117566718765, 5391.531335297983, 5285.494659602005, 5258.717269744548, 0.028, 0.002, 1.004, 192.0, 0.0, 0.0, 0.0, 0.0, 0.0, 0.0, 0.0, 0.0, 0.0, 1.6953709133362007E9, 0.0, 2023-09-22 10:21:53.336
4.0, 5405.568230815916, 5354.91917788019, 5449.467056926139, 5377.181515357675, 5410.731483785091, 5505.100548875398, 5399.01916969051, 5372.197076344142, 0.028, 0.002, 1.004, 192.0, 0.0, 0.0, 0.0, 0.0, 0.0, 0.0, 0.0, 0.0, 0.0, 1.6953709133362272E9, 0.0, 2023-09-22 10:21:53.336
5.0, 5355.142695324743, 5304.493642389017, 5399.086224923876, 5326.800683355414, 5360.373003527285, 5454.742068617591, 5348.660689432703, 5321.838596086335, 0.028, 0.002, 1.004, 192.0, 0.0, 0.0, 0.0, 0.0, 0.0, 0.0, 0.0, 0.0, 0.0, 1.6953709133362525E9, 0.0, 2023-09-22 10:21:53.336
6.0, 5203.0167225619225, 5152.412373115108, 5246.714382972048, 5174.361786170219, 5208.090568553277, 5302.347874921307, 5196.288847480875, 5169.623216345694, 0.028, 0.002, 1.004, 192.0, 0.0, 0.0, 0.0, 0.0, 0.0, 0.0, 0.0, 0.0, 0.0, 1.6953709133362772E9, 0.0, 2023-09-22 10:21:53.336
7.0, 5091.1015380742, 5040.519540371841, 5134.665088017594, 5062.223084237943, 5096.041273598823, 5190.432690433585, 5084.217200781965, 5057.730383602427, 0.028, 0.002, 1.004, 192.0, 0.0, 0.0, 0.0, 0.0, 0.0, 0.0, 0.0, 0.0, 0.0, 1.6953709133363023E9, 0.0, 2023-09-22 10:21:53.336
8.0, 4984.349606555654, 4933.722905364383, 5027.823749521226, 4955.359393997121, 4989.244638591366, 5083.703110659494, 4977.331158796687, 4950.97845208388, 0.028, 0.002, 1.004, 192.0, 0.0, 0.0, 0.0, 0.0, 0.0, 0.0, 0.0, 0.0, 0.0, 1.6953709133363268E9, 0.0, 2023-09-22 10:21:53.336
9.0, 4970.402118015542, 4919.663658101995, 5013.697447025472, 4941.300146734732, 4975.185391328978, 5069.599159908194, 4963.271911534299, 4936.8745013325815, 0.028, 0.002, 1.004, 192.0, 0.0, 0.0, 0.0, 0.0, 0.0, 0.0, 0.0, 0.0, 0.0, 1.695370913336352E9, 0.0, 2023-09-22 10:21:53.336
10.0, 5067.945130818503, 5017.184319160499, 5111.240459828432, 5038.865511282148, 5072.7060523874825, 5167.008062244423, 5060.85962782617, 5034.305755413265, 0.03, -0.002, 1.006, 192.0, 0.0, 240.0, 255.0, 240.0, 31.0, 112.0, 0.0, 0.0, 0.0, 1.695370913336377E9, 0.0, 2023-09-22 10:21:53.336
11.0, 5218.282964024897, 5167.566855855805, 5261.690051757104, 5189.382158444186, 5223.133292571699, 5317.502357662005, 5211.353923243752, 5184.688292108571, 0.03, -0.002, 1.006, 192.0, 0.0, 0.0, 0.0, 0.0, 0.0, 0.0, 0.0, 0.0, 0.0, 1.6953709133364036E9, 0.0, 2023-09-22 10:21:53.336
12.0, 5404.897678482256, 5354.315680779896, 5448.617690636836, 5376.421556046195, 5410.1056349403425, 5504.407644797283, 5398.348617356851, 5371.593579243849, 0.03, -0.002, 1.006, 192.0, 0.0, 0.0, 0.0, 0.0, 0.0, 0.0, 0.0, 0.0, 0.0, 1.6953709133364284E9, 0.0, 2023-09-22 10:21:53.336
13.0, 5430.088094483387, 5379.550800269938, 5473.964568849155, 5401.813137747424, 5435.385457919295, 5529.687467776235, 5423.673143824714, 5396.918105711711, 0.03, -0.002, 1.006, 192.0, 0.0, 0.0, 0.0, 0.0, 0.0, 0.0, 0.0, 0.0, 0.0, 1.6953709133364716E9, 0.0, 2023-09-22 10:21:53.336
14.0, 5257.197351121587, 5206.660056908137, 5300.872659787257, 5228.65417345216, 5262.338252346308, 5356.77437266998, 5250.670641740638, 5223.9156036276345, 0.03, -0.002, 1.006, 192.0, 0.0, 0.0, 0.0, 0.0, 0.0, 0.0, 0.0, 0.0, 0.0, 1.6953709133365135E9, 0.0, 2023-09-22 10:21:53.336
15.0, 5055.092877756701, 5004.51088005434, 5098.410558511086, 5026.192072175989, 5060.010261536868, 5154.491085349451, 5048.163836975556, 5021.632316307106, 0.03, -0.002, 1.006, 192.0, 0.0, 0.0, 0.0, 0.0, 0.0, 0.0, 0.0, 0.0, 0.0, 1.6953709133365524E9, 0.0, 2023-09-22 10:21:53.336
16.0, 4912.756969065305, 4859.559817261675, 4956.208760286422, 4883.990273951325, 4917.808463312204, 5012.356342358154, 4906.006742239802, 4879.519925060264, 0.03, -0.002, 1.006, 192.0, 0.0, 0.0, 0.0, 0.0, 0.0, 0.0, 0.0, 0.0, 0.0, 1.6953709133365986E9, 0.0, 2023-09-22 10:21:53.336
17.0, 4968.256350547833, 4914.92508827747, 5011.886955724592, 4939.601414156129, 4973.419603517009, 5067.878075585137, 4961.662585933517, 4935.242823987344, 0.03, -0.002, 1.006, 192.0, 0.0, 0.0, 0.0, 0.0, 0.0, 0.0, 0.0, 0.0, 0.0, 1.6953709133366308E9, 0.0, 2023-09-22 10:21:53.336
18.0, 5144.119875922189, 5093.58258170874, 5187.594018887761, 5115.308477319298, 5149.0149079579005, 5243.56278700385, 5137.30259386332, 5110.793424939326, 0.03, -0.002, 1.006, 192.0, 0.0, 0.0, 0.0, 0.0, 0.0, 0.0, 0.0, 0.0, 0.0, 1.695370913336661E9, 0.0, 2023-09-22 10:21:53.336
19.0, 5272.5753513068385, 5221.993353604478, 5316.205956483598, 5243.965118404045, 5277.604493809283, 5372.152372855231, 5265.869827970246, 5239.226548579521, 0.03, -0.002, 1.006, 192.0, 0.0, 0.0, 0.0, 0.0, 0.0, 0.0, 0.0, 0.0, 0.0, 1.6953709133367388E9, 0.0, 2023-09-22 10:21:53.336
20.0, 5363.479896006572, 5312.853194815301, 5407.155204672242, 5334.981421826055, 5368.486686764561, 5462.922807088234, 5356.77437266998, 5330.131093279254, 0.03, -0.002, 1.008, 192.0, 0.0, 240.0, 255.0, 240.0, 31.0, 128.0, 0.0, 0.0, 0.0, 1.6953709133367636E9, 0.0, 2023-09-22 10:21:53.336
21.0, 5354.829770902368, 5304.203069711098, 5398.482727823583, 5326.286593232941, 5359.925968638178, 5454.250330239574, 5348.213654543598, 5321.458616430595, 0.03, -0.002, 1.008, 192.0, 0.0, 0.0, 0.0, 0.0, 0.0, 0.0, 0.0, 0.0, 0.0, 1.695370913336789E9, 0.0, 2023-09-22 10:21:53.336
22.0, 5253.37520281973, 5202.770853372915, 5296.804642296391, 5224.65321119466, 5258.359641833263, 5352.77341041248, 5246.647327738682, 5219.89228962568, 0.03, -0.002, 1.008, 192.0, 0.0, 0.0, 0.0, 0.0, 0.0, 0.0, 0.0, 0.0, 0.0, 1.6953709133368127E9, 0.0, 2023-09-22 10:21:53.336
23.0, 5127.579585025262, 5076.975235578446, 5170.986672757468, 5098.72348293346, 5132.474617060973, 5227.0224961069225, 5120.762302966393, 5094.141375320122, 0.03, -0.002, 1.008, 192.0, 0.0, 0.0, 0.0, 0.0, 0.0, 0.0, 0.0, 0.0, 0.0, 1.6953709133368373E9, 0.0, 2023-09-22 10:21:53.336
24.0, 4963.964815612414, 4913.315762676688, 5007.193089388978, 4934.952251309425, 4968.703385436939, 5063.273616227343, 4957.013423086813, 4930.504254162819, 0.03, -0.002, 1.008, 192.0, 0.0, 0.0, 0.0, 0.0, 0.0, 0.0, 0.0, 0.0, 0.0, 1.695370913336864E9, 0.0, 2023-09-22 10:21:53.336
25.0, 4928.470245417386, 4877.642378526018, 4971.4526500049415, 4899.234163669845, 4933.052353030724, 5027.667287310039, 4921.295335447233, 4894.808518267693, 0.03, -0.002, 1.008, 192.0, 0.0, 0.0, 0.0, 0.0, 0.0, 0.0, 0.0, 0.0, 0.0, 1.695370913336888E9, 0.0, 2023-09-22 10:21:53.336
26.0, 5069.152125019089, 5018.368961616631, 5112.358047051197, 5040.027801993823, 5073.868343099159, 5168.349166911741, 5062.088973771211, 5035.4903978693965, 0.03, -0.002, 1.008, 192.0, 0.0, 0.0, 0.0, 0.0, 0.0, 0.0, 0.0, 0.0, 0.0, 1.695370913336912E9, 0.0, 2023-09-22 10:21:53.336
27.0, 5266.070993670344, 5215.332533756797, 5309.589840124827, 5237.281946811909, 5270.9883774505115, 5365.49155300755, 5259.298415100386, 5232.498673498473, 0.03, -0.002, 1.008, 192.0, 0.0, 0.0, 0.0, 0.0, 0.0, 0.0, 0.0, 0.0, 0.0, 1.695370913336936E9, 0.0, 2023-09-22 10:21:53.336
28.0, 5435.452513152661, 5384.915218939212, 5479.396042751795, 5407.199908161153, 5440.705173099658, 5535.208348656696, 5429.082265982898, 5402.193117403164, 0.03, -0.002, 1.008, 192.0, 0.0, 0.0, 0.0, 0.0, 0.0, 0.0, 0.0, 0.0, 0.0, 1.6953709133369613E9, 0.0, 2023-09-22 10:21:53.336
29.0, 5405.098844182354, 5354.494494735539, 5448.975318548121, 5376.801535701935, 5410.373855873806, 5504.832327941934, 5398.683893523681, 5371.839448432857, 0.03, -0.002, 1.008, 192.0, 0.0, 0.0, 0.0, 0.0, 0.0, 0.0, 0.0, 0.0, 0.0, 1.6953709133369873E9, 0.0, 2023-09-22 10:21:53.336
30.0, 5214.527870956406, 5163.834114531769, 5258.046717410889, 5185.850582820247, 5219.55701345885, 5314.082540760343, 5207.799995875358, 5181.044957762356, 0.034, -0.002, 1.004, 192.0, 1.0, 16.0, 255.0, 240.0, 31.0, 96.0, 0.0, 0.0, 0.0, 1.695370913337016E9, 0.0, 2023-09-22 10:21:53.337
31.0, 5051.650709110583, 5001.024007919313, 5095.013093353879, 5022.727551785416, 5056.47868591293, 5151.026564958878, 5044.654613096072, 5018.145444172078, 0.034, -0.002, 1.004, 192.0, 0.0, 0.0, 0.0, 0.0, 0.0, 0.0, 0.0, 0.0, 0.0, 1.6953709133370445E9, 0.0, 2023-09-22 10:21:53.337
32.0, 4957.46045797592, 4906.744349806828, 5000.733435241394, 4928.380838439565, 4962.2213795449, 5056.702203357483, 4950.352603239132, 4923.955193037414, 0.034, -0.002, 1.004, 192.0, 0.0, 0.0, 0.0, 0.0, 0.0, 0.0, 0.0, 0.0, 0.0, 1.6953709133370707E9, 0.0, 2023-09-22 10:21:53.337
33.0, 5003.259182364844, 4952.565425940207, 5046.599214863684, 4974.224266317399, 5008.08715916719, 5102.545631235317, 4996.307789839243, 4969.776269170794, 0.034, -0.002, 1.004, 192.0, 0.0, 0.0, 0.0, 0.0, 0.0, 0.0, 0.0, 0.0, 0.0, 1.6953709133371372E9, 0.0, 2023-09-22 10:21:53.337
34.0, 5123.980954167957, 5073.309549487776, 5167.477448877985, 5095.147203820611, 5128.92068969258, 5223.312106527342, 5117.096616875722, 5090.475689229452, 0.034, -0.002, 1.004, 192.0, 0.0, 0.0, 0.0, 0.0, 0.0, 0.0, 0.0, 0.0, 0.0, 1.6953709133371863E9, 0.0, 2023-09-22 10:21:53.337
35.0, 5227.760103673948, 5177.178105971588, 5271.390708850707, 5199.0828155377885, 5232.811597920847, 5327.180663011153, 5220.987525103989, 5194.299542224353, 0.034, -0.002, 1.004, 192.0, 0.0, 0.0, 0.0, 0.0, 0.0, 0.0, 0.0, 0.0, 0.0, 1.6953709133373911E9, 0.0, 2023-09-22 10:21:53.337
36.0, 5359.478933749072, 5308.874584302257, 5403.154242414742, 5330.868700846279, 5364.552779740427, 5458.9441965751885, 5352.77341041248, 5325.996020555022, 0.034, -0.002, 1.004, 192.0, 0.0, 0.0, 0.0, 0.0, 0.0, 0.0, 0.0, 0.0, 0.0, 1.6953709133374207E9, 0.0, 2023-09-22 10:21:53.337
37.0, 5397.320437111907, 5346.8278463873685, 5441.21926322213, 5368.9560733981225, 5402.550745314449, 5497.031569127032, 5390.883134708779, 5364.038689617955, 0.034, -0.002, 1.004, 192.0, 0.0, 0.0, 0.0, 0.0, 0.0, 0.0, 0.0, 0.0, 0.0, 1.6953709133374484E9, 0.0, 2023-09-22 10:21:53.337
38.0, 5285.360549135274, 5234.867958410735, 5329.169968267675, 5256.906778443668, 5290.546153848905, 5384.937570683667, 5278.766784520958, 5251.9670429190455, 0.034, -0.002, 1.004, 192.0, 0.0, 0.0, 0.0, 0.0, 0.0, 0.0, 0.0, 0.0, 0.0, 1.6953709133374739E9, 0.0, 2023-09-22 10:21:53.337
39.0, 5106.9265731485575, 5056.344575446198, 5150.4230678585855, 5078.070471056756, 5111.86630867318, 5206.257725507942, 5100.086939345234, 5073.398956465597, 0.034, -0.002, 1.004, 192.0, 0.0, 0.0, 0.0, 0.0, 0.0, 0.0, 0.0, 0.0, 0.0, 1.6953709133375003E9, 0.0, 2023-09-22 10:21:53.337
40.0, 4919.30603019071, 4848.115724100558, 4964.7024231794385, 4892.215715910878, 4926.123312249579, 5020.5817843177065, 4914.388646410543, 4887.790070508727, 0.034, -0.002, 1.002, 192.0, 1.0, 16.0, 255.0, 240.0, 31.0, 80.0, 0.0, 0.0, 0.0, 1.695370913337526E9, 0.0, 2023-09-22 10:21:53.337
41.0, 4924.35752443761, 4840.359668774566, 4970.938559882469, 4898.518907847275, 4932.3594489526095, 5026.750865787371, 4920.580079624663, 4894.093262445123, 0.034, -0.002, 1.002, 192.0, 0.0, 0.0, 0.0, 0.0, 0.0, 0.0, 0.0, 0.0, 0.0, 1.6953709133375535E9, 0.0, 2023-09-22 10:21:53.337
42.0, 5117.007209897901, 5065.173514506044, 5160.436649374563, 5088.218163039465, 5121.924593678069, 5216.316010512831, 5110.122872605667, 5083.524296703851, 0.034, -0.002, 1.002, 192.0, 0.0, 0.0, 0.0, 0.0, 0.0, 0.0, 0.0, 0.0, 0.0, 1.69537091333758E9, 0.0, 2023-09-22 10:21:53.337
43.0, 5304.426587155651, 5253.866941197746, 5348.124247565776, 5275.8610577417685, 5309.500433147005, 5403.869498237312, 5297.743415563514, 5271.010729194967, 0.034, -0.002, 1.002, 192.0, 0.0, 0.0, 0.0, 0.0, 0.0, 0.0, 0.0, 0.0, 0.0, 1.6953709133376062E9, 0.0, 2023-09-22 10:21:53.337
44.0, 5417.481710610594, 5366.922064652689, 5461.358184976361, 5389.094995152354, 5422.6673153242255, 5517.058732158987, 5410.999704718555, 5384.132907883276, 0.034, -0.002, 1.002, 192.0, 0.0, 0.0, 0.0, 0.0, 0.0, 0.0, 0.0, 0.0, 0.0, 1.6953709133376312E9, 0.0, 2023-09-22 10:21:53.337
45.0, 5363.30108205093, 5312.71908434857, 5407.177556416697, 5334.959070081601, 5368.509038509016, 5462.900455343778, 5356.841427903346, 5329.974631068067, 0.034, -0.002, 1.002, 192.0, 0.0, 0.0, 0.0, 0.0, 0.0, 0.0, 0.0, 0.0, 0.0, 1.6953709133376565E9, 0.0, 2023-09-22 10:21:53.337
46.0, 5210.392798232174, 5159.766097040903, 5254.0234034089335, 5181.804917073836, 5215.399588990163, 5309.746302336014, 5203.620219662216, 5176.999292015946, 0.034, -0.002, 1.002, 192.0, 0.0, 0.0, 0.0, 0.0, 0.0, 0.0, 0.0, 0.0, 0.0, 1.6953709133376822E9, 0.0, 2023-09-22 10:21:53.337
47.0, 5098.522317233363, 5047.940319531002, 5142.0858671767555, 5069.822677352748, 5103.529107991351, 5197.8534695927465, 5091.682683430038, 5065.106459272678, 0.034, -0.002, 1.002, 192.0, 0.0, 0.0, 0.0, 0.0, 0.0, 0.0, 0.0, 0.0, 0.0, 1.695370913337707E9, 0.0, 2023-09-22 10:21:53.337
48.0, 4993.8714496936145, 4943.289451991254, 5037.23383393691, 4965.037699346269, 4998.766481729327, 5093.157898564088, 4987.009464145835, 4960.455591732931, 0.034, -0.002, 1.002, 192.0, 0.0, 0.0, 0.0, 0.0, 0.0, 0.0, 0.0, 0.0, 0.0, 1.695370913337732E9, 0.0, 2023-09-22 10:21:53.337
49.0, 4983.075557121701, 4932.337097208154, 5026.236775664899, 4953.951234096437, 4987.814126946227, 5082.138488547622, 4976.034757618279, 4949.4361817164645, 0.034, -0.002, 1.002, 192.0, 0.0, 0.0, 0.0, 0.0, 0.0, 0.0, 0.0, 0.0, 0.0, 1.6953709133377604E9, 0.0, 2023-09-22 10:21:53.337
50.0, 5081.087956558223, 5030.32714490022, 5124.427989057063, 5052.075392255234, 5085.893581616114, 5180.195591473054, 5074.069508799256, 5047.448581152986, 0.036000000000000004, 0.0, 1.004, 192.0, 1.0, 32.0, 0.0, 0.0, 31.0, 96.0, 0.0, 0.0, 0.0, 1.6953709133377864E9, 0.0, 2023-09-22 10:21:53.337
51.0, 5224.809673405847, 5174.115916981211, 5268.373223349241, 5196.110033525233, 5229.816464163836, 5324.140825765232, 5217.992391346978, 5191.349111956252, 0.036000000000000004, 0.0, 1.004, 192.0, 0.0, 0.0, 0.0, 0.0, 0.0, 0.0, 0.0, 0.0, 0.0, 1.695370913337813E9, 0.0, 2023-09-22 10:21:53.337
52.0, 5405.411768604728, 5354.718012180092, 5449.22118773713, 5377.069756635399, 5410.597373318359, 5504.966438408665, 5398.9521144571445, 5372.107669366321, 0.036000000000000004, 0.0, 1.004, 192.0, 0.0, 0.0, 0.0, 0.0, 0.0, 0.0, 0.0, 0.0, 0.0, 1.695370913337978E9, 0.0, 2023-09-22 10:21:53.337
53.0, 5436.212472464142, 5385.652826506237, 5480.156002063275, 5408.07162619491, 5441.621594622326, 5535.923604479266, 5429.8869287832895, 5402.997780203555, 0.036000000000000004, 0.0, 1.004, 192.0, 0.0, 0.0, 0.0, 0.0, 0.0, 0.0, 0.0, 0.0, 0.0, 1.695370913338035E9, 0.0, 2023-09-22 10:21:53.338
54.0, 5267.099173915288, 5216.539527957383, 5310.863889558779, 5238.712458457048, 5272.418889095651, 5366.720898952592, 5260.505409300972, 5233.862129910246, 0.036000000000000004, 0.0, 1.004, 192.0, 0.0, 0.0, 0.0, 0.0, 0.0, 0.0, 0.0, 0.0, 0.0, 1.6953709133380637E9, 0.0, 2023-09-22 10:21:53.338
55.0, 5060.501999914885, 5009.763540001338, 5103.886735902636, 5031.690601311994, 5065.553494161784, 5159.788448785359, 5053.595310878195, 5027.063790209745, 0.036000000000000004, 0.0, 1.004, 192.0, 0.0, 0.0, 0.0, 0.0, 0.0, 0.0, 0.0, 0.0, 0.0, 1.6953709133381107E9, 0.0, 2023-09-22 10:21:53.338
56.0, 4915.506233633308, 4863.873703941548, 4958.756859154327, 4886.560724563686, 4920.40126566902, 5014.703275525961, 4908.510137618797, 4882.045672183714, 0.036000000000000004, 0.0, 1.004, 192.0, 0.0, 0.0, 0.0, 0.0, 0.0, 0.0, 0.0, 0.0, 0.0, 1.695370913338152E9, 0.0, 2023-09-22 10:21:53.338
57.0, 4973.665472706017, 4921.921184291981, 5016.983153460402, 4944.831722358671, 4978.4934495083635, 5072.86251459867, 4966.64702494705, 4940.137856023056, 0.036000000000000004, 0.0, 1.004, 192.0, 0.0, 0.0, 0.0, 0.0, 0.0, 0.0, 0.0, 0.0, 0.0, 1.6953709133381915E9, 0.0, 2023-09-22 10:21:53.338
58.0, 5151.317137636797, 5100.489270745429, 5194.724225369004, 5122.461035544996, 5156.145114439144, 5250.491827784995, 5144.388096855652, 5117.834224442748, 0.036000000000000004, 0.0, 1.004, 192.0, 0.0, 0.0, 0.0, 0.0, 0.0, 0.0, 0.0, 0.0, 0.0, 1.6953709133382294E9, 0.0, 2023-09-22 10:21:53.338
59.0, 5282.544229333906, 5231.738714186992, 5326.1077792772985, 5253.844589453291, 5287.506316602983, 5381.920085182201, 5275.8610577417685, 5249.0389643954, 0.036000000000000004, 0.0, 1.004, 192.0, 0.0, 0.0, 0.0, 0.0, 0.0, 0.0, 0.0, 0.0, 0.0, 1.6953709133382804E9, 0.0, 2023-09-22 10:21:53.338
60.0, 5372.867628677801, 5322.15152050871, 5416.587640832382, 5344.39150624174, 5377.963826413611, 5472.422298481739, 5366.296215807941, 5339.407067228207, 0.034, -0.002, 1.002, 192.0, 1.0, 16.0, 255.0, 240.0, 31.0, 80.0, 0.0, 0.0, 0.0, 1.695370913338323E9, 0.0, 2023-09-22 10:21:53.338
61.0, 5356.595558714337, 5305.991209267522, 5400.49438482456, 5328.342953722829, 5361.758811683513, 5456.172580262731, 5350.091201077843, 5323.246755987019, 0.034, -0.002, 1.002, 192.0, 0.0, 0.0, 0.0, 0.0, 0.0, 0.0, 0.0, 0.0, 0.0, 1.6953709133385036E9, 0.0, 2023-09-22 10:21:53.338
62.0, 5252.727002230526, 5202.167356272621, 5296.603476596293, 5224.340286772285, 5257.867903455246, 5352.326375523374, 5246.244996338487, 5219.422902992118, 0.034, -0.002, 1.002, 192.0, 0.0, 0.0, 0.0, 0.0, 0.0, 0.0, 0.0, 0.0, 0.0, 1.6953709133385456E9, 0.0, 2023-09-22 10:21:53.338
63.0, 5134.106294406211, 5083.658407170583, 5177.871010049702, 5105.607820225695, 5139.358954353208, 5233.75037118797, 5127.49017804744, 5100.891602145624, 0.034, -0.002, 1.002, 192.0, 0.0, 0.0, 0.0, 0.0, 0.0, 0.0, 0.0, 0.0, 0.0, 1.695370913338591E9, 0.0, 2023-09-22 10:21:53.338
64.0, 4977.152344841045, 4926.458588416408, 5020.537080828796, 4948.251539260333, 4982.092080365668, 5076.483497200429, 4970.178600570989, 4943.714135135905, 0.034, -0.002, 1.002, 192.0, 0.0, 0.0, 0.0, 0.0, 0.0, 0.0, 0.0, 0.0, 0.0, 1.695370913338636E9, 0.0, 2023-09-22 10:21:53.338
65.0, 4938.908510078015, 4888.058291442191, 4982.092080365668, 4909.761835308294, 4943.647079902539, 5038.016144992846, 4931.823007085683, 4905.269134672777, 0.034, -0.002, 1.002, 192.0, 0.0, 0.0, 0.0, 0.0, 0.0, 0.0, 0.0, 0.0, 0.0, 1.6953709133387048E9, 0.0, 2023-09-22 10:21:53.338
66.0, 5073.309549487776, 5022.6381448075945, 5116.738988964437, 5044.408743907064, 5078.182229779033, 5172.573646613794, 5066.4252121955415, 5039.781932804815, 0.034, -0.002, 1.002, 192.0, 0.0, 0.0, 0.0, 0.0, 0.0, 0.0, 0.0, 0.0, 0.0, 1.6953709133387527E9, 0.0, 2023-09-22 10:21:53.338
67.0, 5270.608397794771, 5219.9816966035005, 5314.3060582048965, 5242.065220125344, 5275.704595530581, 5369.984253643067, 5263.9475779470895, 5237.214891578543, 0.034, -0.002, 1.002, 192.0, 0.0, 0.0, 0.0, 0.0, 0.0, 0.0, 0.0, 0.0, 0.0, 1.695370913338796E9, 0.0, 2023-09-22 10:21:53.338
68.0, 5444.996708035077, 5394.437062077172, 5488.9402376342105, 5416.766454788024, 5450.227016237619, 5544.596081327925, 5438.581757376404, 5411.647905307759, 0.034, -0.002, 1.002, 192.0, 0.0, 0.0, 0.0, 0.0, 0.0, 0.0, 0.0, 0.0, 0.0, 1.6953709133391447E9, 0.0, 2023-09-22 10:21:53.339
69.0, 5418.889870511279, 5368.352576297829, 5462.855751854868, 5390.63726551977, 5424.142530458275, 5518.5786507819475, 5412.564326830427, 5385.608123017326, 0.036000000000000004, 0.0, 1.01, 192.0, 1.0, 32.0, 0.0, 0.0, 31.0, 144.0, 0.0, 0.0, 0.0, 1.695370913339267E9, 0.0, 2023-09-22 10:21:53.339
70.0, 5223.714437927537, 5173.154791969632, 5267.501505315484, 5195.17126025811, 5228.810635663347, 5323.269107731475, 5217.143025057677, 5190.4550421780405, 0.036000000000000004, 0.0, 1.01, 192.0, 0.0, 0.0, 0.0, 0.0, 0.0, 0.0, 0.0, 0.0, 0.0, 1.69537091333931E9, 0.0, 2023-09-22 10:21:53.339
71.0, 5056.545741146296, 5005.986095188391, 5099.952828878502, 5027.711990798949, 5061.440773182007, 5155.899245250135, 5049.661403854061, 5023.085179696701, 0.036000000000000004, 0.0, 1.01, 192.0, 0.0, 0.0, 0.0, 0.0, 0.0, 0.0, 0.0, 0.0, 0.0, 1.6953709133393524E9, 0.0, 2023-09-22 10:21:53.339
72.0, 4960.388536499565, 4909.739483563839, 5003.6168102761285, 4931.375972196576, 4965.104754579635, 5059.563226647762, 4953.325385251687, 4926.726809349872, 0.036000000000000004, 0.0, 1.01, 192.0, 0.0, 0.0, 0.0, 0.0, 0.0, 0.0, 0.0, 0.0, 0.0, 1.695370913339401E9, 0.0, 2023-09-22 10:21:53.339
73.0, 5006.880164966603, 4956.275815519788, 5050.220197465444, 4977.912304152525, 5011.663438280039, 5106.0548551148, 4999.884068952092, 4973.21843781691, 0.036000000000000004, 0.0, 1.01, 192.0, 0.0, 0.0, 0.0, 0.0, 0.0, 0.0, 0.0, 0.0, 0.0, 1.695370913339447E9, 0.0, 2023-09-22 10:21:53.339
74.0, 5130.507663548907, 5079.858610613181, 5173.937103025568, 5101.517450990374, 5135.380343840164, 5229.637650208193, 5123.600974512216, 5096.8906398881245, 0.036000000000000004, 0.0, 1.01, 192.0, 0.0, 0.0, 0.0, 0.0, 0.0, 0.0, 0.0, 0.0, 0.0, 1.695370913339494E9, 0.0, 2023-09-22 10:21:53.339
75.0, 5236.253766566964, 5185.515306653418, 5279.7949647659025, 5207.420016219618, 5241.104095113766, 5335.495511948528, 5229.391781019185, 5202.7261498840035, 0.036000000000000004, 0.0, 1.01, 192.0, 0.0, 0.0, 0.0, 0.0, 0.0, 0.0, 0.0, 0.0, 0.0, 1.6953709133395324E9, 0.0, 2023-09-22 10:21:53.339
76.0, 5364.418669273695, 5313.747264593514, 5408.2280884060965, 5335.875491604268, 5369.581922242871, 5463.950987333177, 5357.86960814829, 5331.069866546377, 0.036000000000000004, 0.0, 1.01, 192.0, 0.0, 0.0, 0.0, 0.0, 0.0, 0.0, 0.0, 0.0, 0.0, 1.6953709133395762E9, 0.0, 2023-09-22 10:21:53.339
77.0, 5400.3602743578285, 5349.755924911014, 5444.192045234686, 5371.9512071551335, 5405.54587907146, 5500.004351139588, 5393.87826846579, 5367.100878608332, 0.036000000000000004, 0.0, 1.01, 192.0, 0.0, 0.0, 0.0, 0.0, 0.0, 0.0, 0.0, 0.0, 0.0, 1.6953709133396163E9, 0.0, 2023-09-22 10:21:53.339
78.0, 5292.222534683053, 5241.685240469604, 5335.9648985820895, 5263.7687639914475, 5297.318732418863, 5391.821907975902, 5285.651121813193, 5258.963138933556, 0.036000000000000004, 0.0, 1.01, 192.0, 0.0, 0.0, 0.0, 0.0, 0.0, 0.0, 0.0, 0.0, 0.0, 1.6953709133396568E9, 0.0, 2023-09-22 10:21:53.339
79.0, 5117.342486064731, 5066.760488362371, 5160.861332519214, 5088.665197928572, 5122.259869844898, 5216.763045401936, 5110.569907494772, 5083.881924615136, 0.032, -0.004, 1.006, 192.0, 1.0, 0.0, 255.0, 224.0, 31.0, 112.0, 0.0, 0.0, 0.0, 1.6953709133397048E9, 0.0, 2023-09-22 10:21:53.339
80.0, 4926.302126205222, 4862.823171952149, 4971.117373838112, 4898.854184014104, 4932.672373374984, 5027.04143846529, 4920.8483005581265, 4894.361483378588, 0.032, -0.004, 1.006, 192.0, 0.0, 0.0, 0.0, 0.0, 0.0, 0.0, 0.0, 0.0, 0.0, 1.6953709133397584E9, 0.0, 2023-09-22 10:21:53.339
81.0, 4923.351695937121, 4852.8766456695375, 4968.971606370403, 4896.596657824119, 4930.4819024183635, 5024.940374486491, 4918.59077436814, 4892.193364166423, 0.032, -0.004, 1.006, 192.0, 0.0, 0.0, 0.0, 0.0, 0.0, 0.0, 0.0, 0.0, 0.0, 1.695370913339799E9, 0.0, 2023-09-22 10:21:53.339
82.0, 5113.162709851588, 5061.910159815569, 5156.502742350429, 5084.172497293055, 5117.968334909479, 5212.449158722063, 5106.121910348166, 5079.568037935262, 0.032, -0.004, 1.006, 192.0, 0.0, 0.0, 0.0, 0.0, 0.0, 0.0, 0.0, 0.0, 0.0, 1.6953709133398373E9, 0.0, 2023-09-22 10:21:53.339
83.0, 5302.973723766056, 5252.302319085875, 5346.537273709449, 5274.18467690762, 5307.95816277959, 5402.394283103262, 5296.268200429464, 5269.46845882755, 0.032, -0.004, 1.006, 192.0, 0.0, 0.0, 0.0, 0.0, 0.0, 0.0, 0.0, 0.0, 0.0, 1.6953709133398836E9, 0.0, 2023-09-22 10:21:53.339
84.0, 5421.97441124611, 5371.325358310385, 5465.806182122968, 5393.498288810049, 5427.249422937563, 5521.573784538959, 5415.514757098527, 5388.647960263248, 0.032, -0.004, 1.006, 192.0, 0.0, 0.0, 0.0, 0.0, 0.0, 0.0, 0.0, 0.0, 0.0, 1.6953709133401132E9, 0.0, 2023-09-22 10:21:53.340
85.0, 5369.090183864854, 5318.485834418039, 5412.966658230622, 5340.636413173248, 5374.365195556306, 5468.711908902158, 5362.652881461726, 5335.830788115357, 0.032, -0.004, 1.006, 192.0, 0.0, 0.0, 0.0, 0.0, 0.0, 0.0, 0.0, 0.0, 0.0, 1.6953709133401515E9, 0.0, 2023-09-22 10:21:53.340
86.0, 5213.075007566811, 5162.425954631085, 5256.638557510204, 5184.330664197286, 5218.0817983248, 5312.473215159562, 5206.347132485764, 5179.636797861672, 0.032, -0.004, 1.006, 192.0, 0.0, 0.0, 0.0, 0.0, 0.0, 0.0, 0.0, 0.0, 0.0, 1.6953709133401935E9, 0.0, 2023-09-22 10:21:53.340
87.0, 5102.143299835122, 5051.494246899396, 5145.595091056239, 5073.264845998865, 5107.060683615289, 5201.474452194507, 5095.326017776253, 5068.5933314077065, 0.032, -0.004, 1.006, 192.0, 0.0, 0.0, 0.0, 0.0, 0.0, 0.0, 0.0, 0.0, 0.0, 1.695370913340244E9, 0.0, 2023-09-22 10:21:53.340
88.0, 4999.146461385067, 4948.542111938252, 5042.419438650541, 4970.089193593168, 5003.952086442958, 5098.34350327772, 4992.217420603922, 4965.529437724285, 0.032, -0.004, 1.006, 192.0, 0.0, 0.0, 0.0, 0.0, 0.0, 0.0, 0.0, 0.0, 0.0, 1.695370913340289E9, 0.0, 2023-09-22 10:21:53.340
89.0, 4991.546868270262, 4940.74135312335, 5034.775142046827, 4962.333138267176, 4996.196031116967, 5090.587447951728, 4984.41666178902, 4957.840437631659, 0.032, -0.006, 1.006, 192.0, 1.0, 0.0, 255.0, 208.0, 31.0, 112.0, 0.0, 0.0, 0.0, 1.6953709133405125E9, 0.0, 2023-09-22 10:21:53.340
90.0, 5088.754604906393, 5037.993793248391, 5132.139340894144, 5059.697337114494, 5093.537878219829, 5187.862239821225, 5081.758508891882, 5055.137581245611, 0.032, -0.006, 1.006, 192.0, 0.0, 0.0, 0.0, 0.0, 0.0, 0.0, 0.0, 0.0, 0.0, 1.6953709133405716E9, 0.0, 2023-09-22 10:21:53.340
91.0, 5228.27419379642, 5177.6027891162385, 5271.860095484269, 5199.485146937985, 5233.280984554409, 5327.605346155804, 5221.456911737551, 5194.79128060237, 0.032, -0.006, 1.006, 192.0, 0.0, 0.0, 0.0, 0.0, 0.0, 0.0, 0.0, 0.0, 0.0, 1.6953709133406153E9, 0.0, 2023-09-22 10:21:53.340
92.0, 5406.462300594128, 5355.746192425036, 5450.204664493163, 5377.852067691335, 5411.558498329938, 5505.99461865361, 5399.868535979812, 5372.934683911167, 0.032, -0.006, 1.006, 192.0, 0.0, 0.0, 0.0, 0.0, 0.0, 0.0, 0.0, 0.0, 0.0, 1.6953709133406625E9, 0.0, 2023-09-22 10:21:53.340
93.0, 5438.0453155094765, 5387.418614318206, 5481.98884510861, 5409.703303540147, 5443.342678945384, 5537.689392291235, 5431.585661361893, 5404.629457548793, 0.032, -0.006, 1.006, 192.0, 0.0, 0.0, 0.0, 0.0, 0.0, 0.0, 0.0, 0.0, 0.0, 1.6953709133407085E9, 0.0, 2023-09-22 10:21:53.340
94.0, 5274.51995307445, 5223.93795537209, 5318.19526174012, 5245.976775405023, 5279.6161508102605, 5373.985215900567, 5267.859133226769, 5241.104095113766, 0.032, -0.006, 1.006, 192.0, 0.0, 0.0, 0.0, 0.0, 0.0, 0.0, 0.0, 0.0, 0.0, 1.6953709133407543E9, 0.0, 2023-09-22 10:21:53.340
95.0, 5066.782840106826, 5016.1337871711, 5110.145224350122, 5037.882034526114, 5071.566113420262, 5165.935178510568, 5059.742040603404, 5033.23287167941, 0.032, -0.006, 1.006, 192.0, 0.0, 0.0, 0.0, 0.0, 0.0, 0.0, 0.0, 0.0, 0.0, 1.6953709133407958E9, 0.0, 2023-09-22 10:21:53.340
96.0, 4916.690876089439, 4865.393622564509, 4959.785039399271, 4887.499497830809, 4921.362390680599, 5015.7091040264495, 4909.426559141464, 4883.073852428657, 0.032, -0.006, 1.006, 192.0, 0.0, 0.0, 0.0, 0.0, 0.0, 0.0, 0.0, 0.0, 0.0, 1.6953709133408337E9, 0.0, 2023-09-22 10:21:53.340
97.0, 4968.368109270109, 4917.048504000724, 5011.462272579941, 4939.2661379893, 4973.084327350179, 5067.453392440485, 4961.148495811045, 4934.661678631506, 0.032, -0.006, 1.006, 192.0, 0.0, 0.0, 0.0, 0.0, 0.0, 0.0, 0.0, 0.0, 0.0, 1.6953709133408947E9, 0.0, 2023-09-22 10:21:53.340
98.0, 5149.417239358097, 5098.790538166826, 5192.779623601392, 5120.6058407552055, 5154.267567904898, 5248.70368822857, 5142.510550321406, 5115.8449191862255, 0.032, -0.006, 1.006, 192.0, 0.0, 0.0, 0.0, 0.0, 0.0, 0.0, 0.0, 0.0, 0.0, 1.695370913340943E9, 0.0, 2023-09-22 10:21:53.340
99.0, 5284.466479357062, 5233.906833399157, 5328.05238104491, 5255.833894709814, 5289.495621859506, 5383.887038694267, 5277.783307764925, 5250.983566163011, 0.036000000000000004, -0.004, 1.004, 192.0, 1.0, 32.0, 255.0, 224.0, 31.0, 96.0, 0.0, 0.0, 0.0, 1.6953709133409927E9, 0.0, 2023-09-22 10:21:53.340
100.0, 5375.01339614551, 5324.476101932061, 5418.778111789002, 5346.537273709449, 5380.131945625776, 5474.478658971627, 5368.464335020106, 5341.597538184827, 0.036000000000000004, -0.004, 1.004, 192.0, 0.0, 0.0, 0.0, 0.0, 0.0, 0.0, 0.0, 0.0, 0.0, 1.6953709133413775E9, 0.0, 2023-09-22 10:21:53.341
101.0, 5358.137829081754, 5307.533479634939, 5401.857841236334, 5329.617003156782, 5363.211675073108, 5457.536036674504, 5351.521712722983, 5324.654915887704, 0.036000000000000004, -0.004, 1.004, 192.0, 0.0, 0.0, 0.0, 0.0, 0.0, 0.0, 0.0, 0.0, 0.0, 1.69537091334143E9, 0.0, 2023-09-22 10:21:53.341
102.0, 5252.034098152411, 5201.429748705596, 5295.731758562536, 5223.334458271797, 5257.08559239931, 5351.409954000706, 5245.37327830473, 5218.528833213906, 0.036000000000000004, -0.004, 1.004, 192.0, 0.0, 0.0, 0.0, 0.0, 0.0, 0.0, 0.0, 0.0, 0.0, 1.6953709133414767E9, 0.0, 2023-09-22 10:21:53.341
103.0, 5133.212224627999, 5082.652578670094, 5176.7757745713925, 5104.423177769563, 5138.129608408166, 5232.588080476294, 5126.327887335764, 5099.751663178404, 0.036000000000000004, -0.004, 1.004, 192.0, 0.0, 0.0, 0.0, 0.0, 0.0, 0.0, 0.0, 0.0, 0.0, 1.6953709133415213E9, 0.0, 2023-09-22 10:21:53.341
104.0, 4977.018234374313, 4926.346829694132, 5020.291211639787, 4947.960966582414, 4981.7791559432935, 5076.1482210336, 4969.88802789307, 4943.445914202442, 0.036000000000000004, -0.004, 1.004, 192.0, 0.0, 0.0, 0.0, 0.0, 0.0, 0.0, 0.0, 0.0, 0.0, 1.6953709133415692E9, 0.0, 2023-09-22 10:21:53.341
105.0, 4939.534358922763, 4888.795899009216, 4982.6061704881395, 4910.365332408587, 4944.183521769467, 5038.507883370863, 4932.381800697065, 4905.850280028615, 0.036000000000000004, -0.004, 1.004, 192.0, 0.0, 0.0, 0.0, 0.0, 0.0, 0.0, 0.0, 0.0, 0.0, 1.69537091381615E9, 0.0, 2023-09-22 10:21:53.816
106.0, 5071.566113420262, 5020.8723569956255, 5114.816738941281, 5042.575900861729, 5076.282331500332, 5170.651396590638, 5064.614720894661, 5037.926738015025, 0.036000000000000004, -0.004, 1.004, 192.0, 0.0, 0.0, 0.0, 0.0, 0.0, 0.0, 0.0, 0.0, 0.0, 1.6953709138162832E9, 0.0, 2023-09-22 10:21:53.816
107.0, 5264.9981099364895, 5214.393760489674, 5308.628715113248, 5236.2984700558745, 5269.960197205567, 5364.39631752924, 5258.381993577718, 5231.537548486895, 0.036000000000000004, -0.004, 1.004, 192.0, 0.0, 0.0, 0.0, 0.0, 0.0, 0.0, 0.0, 0.0, 0.0, 1.6953709138163917E9, 0.0, 2023-09-22 10:21:53.816
108.0, 5443.923824301222, 5393.297123109952, 5487.75559517808, 5415.537108842982, 5449.22118773713, 5543.523197594071, 5437.464170153638, 5410.597373318359, 0.036000000000000004, -0.004, 1.004, 192.0, 0.0, 0.0, 0.0, 0.0, 0.0, 0.0, 0.0, 0.0, 0.0, 1.6953709138164496E9, 0.0, 2023-09-22 10:21:53.816
109.0, 5419.828643778401, 5369.2466460760415, 5463.682766399714, 5391.464280064617, 5425.1930624476745, 5519.428017071249, 5413.3913413752725, 5386.613951517815, 0.036000000000000004, -0.002, 1.004, 192.0, 1.0, 32.0, 255.0, 240.0, 31.0, 96.0, 0.0, 0.0, 0.0, 1.695370913816507E9, 0.0, 2023-09-22 10:21:53.816
110.0, 5224.452045494562, 5173.7806408143815, 5268.105002415777, 5195.752405613948, 5229.414132763641, 5323.783197853947, 5217.7465221579705, 5191.103242767244, 0.036000000000000004, -0.002, 1.004, 192.0, 0.0, 0.0, 0.0, 0.0, 0.0, 0.0, 0.0, 0.0, 0.0, 1.6953709138165596E9, 0.0, 2023-09-22 10:21:53.816
111.0, 5055.875188812636, 5005.181432388, 5099.192869567021, 5026.8626245096475, 5060.636110381617, 5155.049878960834, 5048.879092798125, 5022.347572129675, 0.036000000000000004, -0.002, 1.004, 192.0, 0.0, 0.0, 0.0, 0.0, 0.0, 0.0, 0.0, 0.0, 0.0, 1.695370913816612E9, 0.0, 2023-09-22 10:21:53.816
112.0, 4955.918187608503, 4905.157375950501, 4999.057054407246, 4926.726809349872, 4960.656757433028, 5054.981119034424, 4948.7879811272605, 4922.256460458811, 0.036000000000000004, -0.002, 1.004, 192.0, 0.0, 0.0, 0.0, 0.0, 0.0, 0.0, 0.0, 0.0, 0.0, 1.6953709138166537E9, 0.0, 2023-09-22 10:21:53.816
113.0, 5005.293191110277, 4954.644138174551, 5048.499113142385, 4976.213571573922, 5010.121167912623, 5104.423177769563, 4998.364150329131, 4971.7432226828605, 0.036000000000000004, -0.002, 1.004, 192.0, 0.0, 0.0, 0.0, 0.0, 0.0, 0.0, 0.0, 0.0, 0.0, 1.6953709138167057E9, 0.0, 2023-09-22 10:21:53.816
114.0, 5132.184044383054, 5081.646750169605, 5175.658187348627, 5103.417349269074, 5137.2131868854985, 5231.537548486895, 5125.433817557552, 5098.835241655736, 0.036000000000000004, -0.002, 1.004, 192.0, 0.0, 0.0, 0.0, 0.0, 0.0, 0.0, 0.0, 0.0, 0.0, 1.6953709138167558E9, 0.0, 2023-09-22 10:21:53.816
115.0, 5237.974850890023, 5187.303446209842, 5281.560752577871, 5209.297562753864, 5243.003993392467, 5337.328354993863, 5231.291679297886, 5204.581344673794, 0.036000000000000004, -0.002, 1.004, 192.0, 0.0, 0.0, 0.0, 0.0, 0.0, 0.0, 0.0, 0.0, 0.0, 1.69537091381681E9, 0.0, 2023-09-22 10:21:53.816
116.0, 5363.34578553984, 5312.584973881838, 5406.9763907166, 5334.802607870413, 5368.307872808919, 5462.654586154769, 5356.72966918107, 5329.907575834701, 0.036000000000000004, -0.002, 1.004, 192.0, 0.0, 0.0, 0.0, 0.0, 0.0, 0.0, 0.0, 0.0, 0.0, 1.6953709138169627E9, 0.0, 2023-09-22 10:21:53.816
117.0, 5397.678065023192, 5347.1184190652875, 5441.55453938896, 5369.403108287229, 5402.908373225734, 5497.322141804951, 5391.2631143645185, 5364.44102101815, 0.036000000000000004, -0.002, 1.004, 192.0, 0.0, 0.0, 0.0, 0.0, 0.0, 0.0, 0.0, 0.0, 0.0, 1.695370913817016E9, 0.0, 2023-09-22 10:21:53.817
118.0, 5287.483964858528, 5236.99137413399, 5331.360439224296, 5259.097249400288, 5292.6472178277045, 5387.060986406921, 5281.0243107109445, 5254.179865620121, 0.036000000000000004, -0.002, 1.004, 192.0, 0.0, 0.0, 0.0, 0.0, 0.0, 0.0, 0.0, 0.0, 0.0, 1.6953709138170695E9, 0.0, 2023-09-22 10:21:53.817
119.0, 5115.330829063753, 5064.8382383392145, 5159.006137729423, 5086.653540927594, 5120.404675055108, 5214.729036656504, 5108.647657471616, 5081.95967459198, 0.034, -0.002, 1.002, 192.0, 1.0, 16.0, 255.0, 240.0, 31.0, 80.0, 0.0, 0.0, 0.0, 1.6953709138171315E9, 0.0, 2023-09-22 10:21:53.817
120.0, 4927.64323087254, 4867.807610965683, 4972.100850594145, 4899.815309025683, 4933.633498386562, 5028.047266965779, 4921.83177731416, 4895.344960134621, 0.034, -0.002, 1.002, 192.0, 0.0, 0.0, 0.0, 0.0, 0.0, 0.0, 0.0, 0.0, 0.0, 1.6953709138171852E9, 0.0, 2023-09-22 10:21:53.817
121.0, 4921.384742425053, 4857.034070138225, 4966.289397035765, 4893.936800233937, 4927.732637850361, 5022.213461662944, 4915.997972011325, 4889.466451342875, 0.034, -0.002, 1.002, 192.0, 0.0, 0.0, 0.0, 0.0, 0.0, 0.0, 0.0, 0.0, 0.0, 1.69537091381723E9, 0.0, 2023-09-22 10:21:53.817
122.0, 5107.530070248851, 5056.545741146296, 5150.847751003236, 5078.5175059458625, 5112.313343562287, 5206.7718156304145, 5100.578677723251, 5073.913046588069, 0.034, -0.002, 1.002, 192.0, 0.0, 0.0, 0.0, 0.0, 0.0, 0.0, 0.0, 0.0, 0.0, 1.6953709138172867E9, 0.0, 2023-09-22 10:21:53.817
123.0, 5301.140880720721, 5250.491827784995, 5344.7714858974805, 5272.508296073473, 5306.125319734254, 5400.606143546837, 5294.591819595315, 5267.61326403776, 0.034, -0.002, 1.002, 192.0, 0.0, 0.0, 0.0, 0.0, 0.0, 0.0, 0.0, 0.0, 0.0, 1.6953709138173313E9, 0.0, 2023-09-22 10:21:53.817
124.0, 5427.249422937563, 5376.578018257382, 5471.081193814421, 5398.818003990413, 5432.278565440008, 5526.75938925259, 5420.879175767801, 5393.87826846579, 0.034, -0.002, 1.002, 192.0, 0.0, 0.0, 0.0, 0.0, 0.0, 0.0, 0.0, 0.0, 0.0, 1.6953709138173752E9, 0.0, 2023-09-22 10:21:53.817
125.0, 5374.789878700957, 5324.140825765232, 5418.59929783336, 5346.313756264896, 5379.886076436767, 5474.3221967604395, 5368.307872808919, 5341.396372484729, 0.034, -0.002, 1.002, 192.0, 0.0, 0.0, 0.0, 0.0, 0.0, 0.0, 0.0, 0.0, 0.0, 1.6953709138174193E9, 0.0, 2023-09-22 10:21:53.817
126.0, 5212.851490122258, 5162.202437186532, 5256.415040065652, 5184.062443263822, 5217.791225646881, 5312.204994226097, 5206.190670274576, 5179.3015216948415, 0.034, -0.002, 1.002, 192.0, 0.0, 0.0, 0.0, 0.0, 0.0, 0.0, 0.0, 0.0, 0.0, 1.6953709138174632E9, 0.0, 2023-09-22 10:21:53.817
127.0, 5096.376549765653, 5045.660441596561, 5139.805989242314, 5067.453392440485, 5101.182174823543, 5195.573591658305, 5089.581619451239, 5062.737174360415, 0.034, -0.002, 1.002, 192.0, 0.0, 0.0, 0.0, 0.0, 0.0, 0.0, 0.0, 0.0, 0.0, 1.6953709138175075E9, 0.0, 2023-09-22 10:21:53.817
128.0, 4997.89476369557, 4947.201007270934, 5041.212444449955, 4968.882199392581, 5002.65568526455, 5097.069453843767, 4990.943371169969, 4964.344795268154, 0.034, -0.002, 1.002, 192.0, 0.0, 0.0, 0.0, 0.0, 0.0, 0.0, 0.0, 0.0, 0.0, 1.695370913817551E9, 0.0, 2023-09-22 10:21:53.817
129.0, 4991.904496181548, 4941.255443245822, 5035.199825191477, 4962.891931878559, 4996.665417750528, 5091.034482840834, 4984.908400167036, 4958.354527754132, 0.038, -0.002, 1.002, 192.0, 1.0, 48.0, 255.0, 240.0, 31.0, 80.0, 0.0, 0.0, 0.0, 1.6953709138175943E9, 0.0, 2023-09-22 10:21:53.817
130.0, 5086.206506038488, 5035.4903978693965, 5129.434779815052, 5057.1939417355, 5090.922724118558, 5185.336492697775, 5079.255113512888, 5052.544778888796, 0.038, -0.002, 1.002, 192.0, 0.0, 0.0, 0.0, 0.0, 0.0, 0.0, 0.0, 0.0, 0.0, 1.6953709138176405E9, 0.0, 2023-09-22 10:21:53.817
131.0, 5224.519100727928, 5173.802992558836, 5267.8814849712235, 5195.6182951472165, 5229.324725785819, 5323.805549598402, 5217.701818669059, 5190.946780556057, 0.038, -0.002, 1.002, 192.0, 0.0, 0.0, 0.0, 0.0, 0.0, 0.0, 0.0, 0.0, 0.0, 1.6953709138176844E9, 0.0, 2023-09-22 10:21:53.817
132.0, 5404.070663937409, 5353.511017979506, 5447.857731325356, 5375.549838012438, 5409.189213417675, 5503.647685485803, 5397.633361534281, 5370.654805976726, 0.038, -0.002, 1.002, 192.0, 0.0, 0.0, 0.0, 0.0, 0.0, 0.0, 0.0, 0.0, 0.0, 1.6953709138177893E9, 0.0, 2023-09-22 10:21:53.817
133.0, 5440.2134347216415, 5389.653788763737, 5484.134612576319, 5411.938477985678, 5445.443742924183, 5539.902214992311, 5433.9325945297, 5406.954038972144, 0.038, -0.002, 1.002, 192.0, 0.0, 0.0, 0.0, 0.0, 0.0, 0.0, 0.0, 0.0, 0.0, 1.6953709138178427E9, 0.0, 2023-09-22 10:21:53.817
134.0, 5280.063185699366, 5229.503539741461, 5323.783197853947, 5251.587063263305, 5285.226438668542, 5379.6402072477595, 5273.581179807327, 5246.781438205414, 0.038, -0.002, 1.002, 192.0, 0.0, 0.0, 0.0, 0.0, 0.0, 0.0, 0.0, 0.0, 0.0, 1.6953709138178911E9, 0.0, 2023-09-22 10:21:53.817
135.0, 5075.008282066379, 5024.403932619564, 5118.460073287496, 5046.040421252301, 5079.970369335458, 5174.40648965913, 5068.19100000751, 5041.57007236124, 0.038, -0.002, 1.002, 192.0, 0.0, 0.0, 0.0, 0.0, 0.0, 0.0, 0.0, 0.0, 0.0, 1.6953709138179348E9, 0.0, 2023-09-22 10:21:53.817
136.0, 4923.284640703755, 4872.032090667736, 4966.468210991408, 4894.048558956213, 4928.045562272735, 5022.4593308519525, 4916.154434222512, 4889.645265298518, 0.038, -0.002, 1.002, 192.0, 0.0, 0.0, 0.0, 0.0, 0.0, 0.0, 0.0, 0.0, 0.0, 1.6953709138179781E9, 0.0, 2023-09-22 10:21:53.817
137.0, 4973.397251772553, 4922.144701736534, 5016.6478772935725, 4944.183521769467, 4978.113469852623, 5072.571941920751, 4966.356452269131, 4939.713172878405, 0.038, -0.002, 1.002, 192.0, 0.0, 0.0, 0.0, 0.0, 0.0, 0.0, 0.0, 0.0, 0.0, 1.6953709138180234E9, 0.0, 2023-09-22 10:21:53.818
138.0, 5153.753477782426, 5103.216183568977, 5197.249972492454, 5124.852672201714, 5158.648509818138, 5253.106981886266, 5147.003250956924, 5120.20350935501, 0.038, -0.002, 1.002, 192.0, 0.0, 0.0, 0.0, 0.0, 0.0, 0.0, 0.0, 0.0, 0.0, 1.6953709138180707E9, 0.0, 2023-09-22 10:21:53.818
139.0, 5292.781328294436, 5242.288737569897, 5336.456636960106, 5264.104040158277, 5297.8775260302455, 5392.403053331739, 5286.276970657942, 5259.365470333752, 0.034, -0.002, 1.008, 192.0, 1.0, 16.0, 255.0, 240.0, 31.0, 128.0, 0.0, 0.0, 0.0, 1.6953709138181164E9, 0.0, 2023-09-22 10:21:53.818
140.0, 5382.434175304673, 5331.963936324589, 5426.221242692619, 5354.025108101977, 5387.664483507215, 5482.167659064253, 5376.108631623821, 5349.130076066265, 0.034, -0.002, 1.008, 192.0, 0.0, 0.0, 0.0, 0.0, 0.0, 0.0, 0.0, 0.0, 0.0, 1.6953709138181677E9, 0.0, 2023-09-22 10:21:53.818
141.0, 5359.881265149268, 5309.411026169184, 5403.645980792759, 5331.494549691028, 5365.066869862899, 5459.592397164392, 5353.443962746139, 5326.532462421949, 0.034, -0.002, 1.008, 192.0, 0.0, 0.0, 0.0, 0.0, 0.0, 0.0, 0.0, 0.0, 0.0, 1.695370913818216E9, 0.0, 2023-09-22 10:21:53.818
142.0, 5251.564711518849, 5201.116824283222, 5295.217668440065, 5222.976830360512, 5256.66090925466, 5351.164084811698, 5244.948595160079, 5218.171205302621, 0.034, -0.002, 1.008, 192.0, 0.0, 0.0, 0.0, 0.0, 0.0, 0.0, 0.0, 0.0, 0.0, 1.695370913818262E9, 0.0, 2023-09-22 10:21:53.818
143.0, 5135.6932682625375, 5085.200677538, 5179.189762972565, 5106.9265731485575, 5140.6777072760715, 5235.292641555387, 5128.96539318149, 5102.299762046309, 0.034, -0.002, 1.008, 192.0, 0.0, 0.0, 0.0, 0.0, 0.0, 0.0, 0.0, 0.0, 0.0, 1.695370913818308E9, 0.0, 2023-09-22 10:21:53.818
144.0, 4983.388481544075, 4932.895890819537, 5026.66145880955, 4954.331213752176, 4988.261161835332, 5082.786689136826, 4976.504144251841, 4949.9055683500255, 0.034, -0.002, 1.008, 192.0, 0.0, 0.0, 0.0, 0.0, 0.0, 0.0, 0.0, 0.0, 0.0, 1.6953709138183546E9, 0.0, 2023-09-22 10:21:53.818
145.0, 4947.424524715487, 4896.6637130574845, 4990.563391514229, 4918.188442967945, 4952.096039306645, 5046.621566608139, 4940.361373467609, 4913.762797565794, 0.034, -0.002, 1.008, 192.0, 0.0, 0.0, 0.0, 0.0, 0.0, 0.0, 0.0, 0.0, 0.0, 1.695370913818402E9, 0.0, 2023-09-22 10:21:53.818
146.0, 5077.668139656561, 5026.884976254103, 5120.874061688669, 5048.566168375751, 5082.362005992175, 5176.93223678258, 5070.672043642049, 5043.917005529047, 0.034, -0.002, 1.008, 192.0, 0.0, 0.0, 0.0, 0.0, 0.0, 0.0, 0.0, 0.0, 0.0, 1.6953709138184474E9, 0.0, 2023-09-22 10:21:53.818
147.0, 5268.887313471712, 5218.372371002719, 5312.406159926196, 5240.210025335554, 5273.894104229701, 5368.419631531195, 5262.226493624031, 5235.449103766573, 0.034, -0.002, 1.008, 192.0, 0.0, 0.0, 0.0, 0.0, 0.0, 0.0, 0.0, 0.0, 0.0, 1.6953709138184936E9, 0.0, 2023-09-22 10:21:53.818
148.0, 5447.433048180706, 5396.8957539672565, 5491.242467313107, 5419.113387955831, 5452.708059872158, 5547.188883684741, 5441.107504499853, 5414.173652431208, 0.034, -0.002, 1.008, 192.0, 0.0, 0.0, 0.0, 0.0, 0.0, 0.0, 0.0, 0.0, 0.0, 1.6953709138186536E9, 0.0, 2023-09-22 10:21:53.818
149.0, 5429.708114827647, 5379.237875847563, 5473.741051404602, 5401.522565069505, 5435.117236985831, 5529.575709053959, 5423.516681613527, 5396.649884778248, 0.034, 0.002, 1.008, 192.0, 1.0, 16.0, 0.0, 16.0, 31.0, 128.0, 0.0, 0.0, 0.0, 1.6953709138187025E9, 0.0, 2023-09-22 10:21:53.818
150.0, 5232.588080476294, 5182.095489751755, 5276.218685653053, 5204.022551062411, 5237.75133344547, 5332.254509002508, 5226.039019350889, 5199.373388215708, 0.034, 0.002, 1.008, 192.0, 0.0, 0.0, 0.0, 0.0, 0.0, 0.0, 0.0, 0.0, 0.0, 1.6953709138187463E9, 0.0, 2023-09-22 10:21:53.818
151.0, 5058.624453380639, 5008.154214400556, 5102.031541112846, 5029.745999544382, 5063.586540649717, 5158.02266097339, 5051.784819577315, 5025.253298908866, 0.034, 0.002, 1.008, 192.0, 0.0, 0.0, 0.0, 0.0, 0.0, 0.0, 0.0, 0.0, 0.0, 1.6953709138187895E9, 0.0, 2023-09-22 10:21:53.818
152.0, 4959.382707999076, 4908.845413785626, 5002.588630031184, 4930.25838497381, 4964.188333056967, 5058.691508614005, 4952.45366721793, 4925.944498293937, 0.034, 0.002, 1.008, 192.0, 0.0, 0.0, 0.0, 0.0, 0.0, 0.0, 0.0, 0.0, 0.0, 1.6953709138188367E9, 0.0, 2023-09-22 10:21:53.818
153.0, 5012.915135969536, 4962.288434778266, 5056.165761490555, 4983.790812944271, 5017.698409282972, 5112.201584840011, 5005.986095188391, 4979.454574519941, 0.034, 0.002, 1.008, 192.0, 0.0, 0.0, 0.0, 0.0, 0.0, 0.0, 0.0, 0.0, 0.0, 1.69537091381889E9, 0.0, 2023-09-22 10:21:53.818
154.0, 5146.0197742008895, 5095.460128242985, 5189.426861933096, 5117.141320364633, 5150.937157981058, 5245.46268528255, 5139.202492142021, 5112.53686100684, 0.034, 0.002, 1.008, 192.0, 0.0, 0.0, 0.0, 0.0, 0.0, 0.0, 0.0, 0.0, 0.0, 1.69537091381892E9, 0.0, 2023-09-22 10:21:53.818
155.0, 5248.6813364841155, 5198.1440422706655, 5292.244886427508, 5220.004048347956, 5253.643423753193, 5348.168951054687, 5241.9311096586125, 5215.198423290065, 0.034, 0.002, 1.008, 192.0, 0.0, 0.0, 0.0, 0.0, 0.0, 0.0, 0.0, 0.0, 0.0, 1.6953709138189456E9, 0.0, 2023-09-22 10:21:53.818
156.0, 5369.20194258713, 5318.619944884771, 5412.899602997256, 5340.681116662159, 5374.25343683403, 5468.756612391068, 5362.608177972816, 5335.830788115357, 0.034, 0.002, 1.008, 192.0, 0.0, 0.0, 0.0, 0.0, 0.0, 0.0, 0.0, 0.0, 0.0, 1.6953709138189702E9, 0.0, 2023-09-22 10:21:53.818
157.0, 5402.371931358806, 5351.834637145357, 5446.2037022356635, 5374.0075676450215, 5407.579887816893, 5502.0830633739315, 5395.889925466768, 5369.090183864854, 0.034, 0.002, 1.008, 192.0, 0.0, 0.0, 0.0, 0.0, 0.0, 0.0, 0.0, 0.0, 0.0, 1.6953709138189967E9, 0.0, 2023-09-22 10:21:53.818
158.0, 5295.9329242626345, 5245.41798179364, 5339.697639906125, 5267.479153571028, 5301.073825487355, 5395.577001044393, 5289.450918370595, 5262.628825024227, 0.034, 0.002, 1.008, 192.0, 0.0, 0.0, 0.0, 0.0, 0.0, 0.0, 0.0, 0.0, 0.0, 1.6953709138190207E9, 0.0, 2023-09-22 10:21:53.819
159.0, 5125.009134412901, 5074.605950666184, 5168.751498311937, 5096.398901510108, 5130.150035637622, 5224.65321119466, 5118.415369798586, 5091.7273869189485, 0.036000000000000004, -0.002, 1.004, 192.0, 1.0, 32.0, 255.0, 240.0, 31.0, 96.0, 0.0, 0.0, 0.0, 1.6953709138190444E9, 0.0, 2023-09-22 10:21:53.819
160.0, 4939.668469389495, 4882.023320439258, 4984.014330388824, 4911.706437075905, 4945.5022746923305, 5040.005450249369, 4933.633498386562, 4907.236088184844, 0.036000000000000004, -0.002, 1.004, 192.0, 0.0, 0.0, 0.0, 0.0, 0.0, 0.0, 0.0, 0.0, 0.0, 1.6953709138190708E9, 0.0, 2023-09-22 10:21:53.819
161.0, 4932.962946052903, 4872.188552878923, 4977.621731474606, 4905.313838161688, 4939.042620544747, 5033.590499590695, 4927.285602961255, 4900.821137526172, 0.036000000000000004, -0.002, 1.004, 192.0, 0.0, 0.0, 0.0, 0.0, 0.0, 0.0, 0.0, 0.0, 0.0, 1.6953709138191004E9, 0.0, 2023-09-22 10:21:53.819
162.0, 5116.247250586421, 5065.531142417329, 5159.743745296449, 5087.368796750164, 5121.052875644312, 5215.623106434716, 5109.407616783097, 5082.786689136826, 0.036000000000000004, -0.002, 1.004, 192.0, 0.0, 0.0, 0.0, 0.0, 0.0, 0.0, 0.0, 0.0, 0.0, 1.6953709138191304E9, 0.0, 2023-09-22 10:21:53.819
