%OpenBCI Raw EXG Data
%Number of channels = 8
%Sample Rate = 250 Hz
%Board = OpenBCI_GUI$BoardCytonSerial
Sample Index, EXG Channel 0, EXG Channel 1, EXG Channel 2, EXG Channel 3, EXG Channel 4, EXG Channel 5, EXG Channel 6, EXG Channel 7, Accel Channel 0, Accel Channel 1, Accel Channel 2, Other, Other, Other, Other, Other, Other, Other, Analog Channel 0, Analog Channel 1, Analog Channel 2, Timestamp, Other, Timestamp (Formatted)
0.0, 0.0, 0.0, 0.0, 0.0, 0.0, 0.0, 0.0, 0.0, 0.0, 0.0, 0.0, 192.0, 0.0, 0.0, 0.0, 0.0, 0.0, 0.0, 0.0, 0.0, 0.0, 1.695371186370454E9, 0.0, 2023-09-22 10:26:26.370
1.0, -2288.729225245622, 187500.0, -187500.02235174447, -187500.02235174447, 187500.0, -187500.02235174447, -187500.02235174447, 187500.0, 0.038, -0.01, 1.04, 192.0, 1.0, 48.0, 255.0, 176.0, 32.0, 128.0, 0.0, 0.0, 0.0, 1.6953711868571968E9, 0.0, 2023-09-22 10:26:26.857
2.0, 938.0580113003268, 187500.0, -187500.02235174447, -187500.02235174447, 187500.0, -187500.02235174447, -187500.02235174447, 187500.0, 0.038, -0.01, 1.04, 192.0, 0.0, 0.0, 0.0, 0.0, 0.0, 0.0, 0.0, 0.0, 0.0, 1.6953711868573184E9, 0.0, 2023-09-22 10:26:26.857
3.0, 3648.7434683732354, 187500.0, -187500.02235174447, -187500.02235174447, 187500.0, -187500.02235174447, -187500.02235174447, 187500.0, 0.038, -0.01, 1.04, 192.0, 0.0, 0.0, 0.0, 0.0, 0.0, 0.0, 0.0, 0.0, 0.0, 1.695371186857405E9, 0.0, 2023-09-22 10:26:26.857
4.0, 5735.457627231793, 187500.0, -187500.02235174447, -187500.02235174447, 187500.0, -187500.02235174447, -187500.02235174447, 187500.0, 0.038, -0.01, 1.04, 192.0, 0.0, 0.0, 0.0, 0.0, 0.0, 0.0, 0.0, 0.0, 0.0, 1.6953711868574607E9, 0.0, 2023-09-22 10:26:26.857
5.0, 4787.408386159943, 187500.0, -187500.02235174447, -187500.02235174447, 187500.0, -187500.02235174447, -187500.02235174447, 187500.0, 0.038, -0.01, 1.04, 192.0, 0.0, 0.0, 0.0, 0.0, 0.0, 0.0, 0.0, 0.0, 0.0, 1.69537118685751E9, 0.0, 2023-09-22 10:26:26.857
6.0, 1833.5359494132936, 187500.0, -187500.02235174447, -187500.02235174447, 187500.0, -187500.02235174447, -187500.02235174447, 187500.0, 0.038, -0.01, 1.04, 192.0, 0.0, 0.0, 0.0, 0.0, 0.0, 0.0, 0.0, 0.0, 0.0, 1.6953711868575456E9, 0.0, 2023-09-22 10:26:26.857
7.0, -648.6699758374663, 187500.0, -187500.02235174447, -187500.02235174447, 187500.0, -187500.02235174447, -187500.02235174447, 187500.0, 0.038, -0.01, 1.04, 192.0, 0.0, 0.0, 0.0, 0.0, 0.0, 0.0, 0.0, 0.0, 0.0, 1.6953711868575828E9, 0.0, 2023-09-22 10:26:26.857
8.0, -2461.2846924405926, 187500.0, -187500.02235174447, -187500.02235174447, 187500.0, -187500.02235174447, -187500.02235174447, 187500.0, 0.038, -0.022, 1.032, 192.0, 1.0, 48.0, 255.0, 80.0, 32.0, 64.0, 0.0, 0.0, 0.0, 1.6953711868576205E9, 0.0, 2023-09-22 10:26:26.857
9.0, -1344.83740864246, 187500.0, -187500.02235174447, -187500.02235174447, 187500.0, -187500.02235174447, -187500.02235174447, 187500.0, 0.038, -0.022, 1.032, 192.0, 0.0, 0.0, 0.0, 0.0, 0.0, 0.0, 0.0, 0.0, 0.0, 1.6953711868576596E9, 0.0, 2023-09-22 10:26:26.857
10.0, 1802.623486831604, 187500.0, -187500.02235174447, -187500.02235174447, 187500.0, -187500.02235174447, -187500.02235174447, 187500.0, 0.038, -0.022, 1.032, 192.0, 0.0, 0.0, 0.0, 0.0, 0.0, 0.0, 0.0, 0.0, 0.0, 1.695371186857686E9, 0.0, 2023-09-22 10:26:26.857
11.0, 4435.480169711133, 187500.0, -187500.02235174447, -187500.02235174447, 187500.0, -187500.02235174447, -187500.02235174447, 187500.0, 0.038, -0.022, 1.032, 192.0, 0.0, 0.0, 0.0, 0.0, 0.0, 0.0, 0.0, 0.0, 0.0, 1.6953711868577173E9, 0.0, 2023-09-22 10:26:26.857
12.0, 6366.447373205111, 187500.0, -187500.02235174447, -187500.02235174447, 187500.0, -187500.02235174447, -187500.02235174447, 187500.0, 0.038, -0.022, 1.032, 192.0, 0.0, 0.0, 0.0, 0.0, 0.0, 0.0, 0.0, 0.0, 0.0, 1.695371186857765E9, 0.0, 2023-09-22 10:26:26.857
13.0, 5364.39631752924, 187500.0, -187500.02235174447, -187500.02235174447, 187500.0, -187500.02235174447, -187500.02235174447, 187500.0, 0.038, -0.022, 1.032, 192.0, 0.0, 0.0, 0.0, 0.0, 0.0, 0.0, 0.0, 0.0, 0.0, 1.69537118685781E9, 0.0, 2023-09-22 10:26:26.857
14.0, 2423.487892566668, 187500.0, -187500.02235174447, -187500.02235174447, 187500.0, -187500.02235174447, -187500.02235174447, 187500.0, 0.038, -0.022, 1.032, 192.0, 0.0, 0.0, 0.0, 0.0, 0.0, 0.0, 0.0, 0.0, 0.0, 1.695371186857911E9, 0.0, 2023-09-22 10:26:26.857
15.0, -110.35056237585097, 187500.0, -187500.02235174447, -187500.02235174447, 187500.0, -187500.02235174447, -187500.02235174447, 187500.0, 0.038, -0.022, 1.032, 192.0, 0.0, 0.0, 0.0, 0.0, 0.0, 0.0, 0.0, 0.0, 0.0, 1.6953711868580797E9, 0.0, 2023-09-22 10:26:26.858
16.0, -2000.3246665387949, 187500.0, -187500.02235174447, -187500.02235174447, 187500.0, -187500.02235174447, -187500.02235174447, 187500.0, 0.038, -0.022, 1.032, 192.0, 0.0, 0.0, 0.0, 0.0, 0.0, 0.0, 0.0, 0.0, 0.0, 1.6953711868590689E9, 0.0, 2023-09-22 10:26:26.859
17.0, -903.5916213502434, 187500.0, -187500.02235174447, -187500.02235174447, 187500.0, -187500.02235174447, -187500.02235174447, 187500.0, 0.038, -0.022, 1.032, 192.0, 0.0, 0.0, 0.0, 0.0, 0.0, 0.0, 0.0, 0.0, 0.0, 1.6953711868591545E9, 0.0, 2023-09-22 10:26:26.859
18.0, 2189.4874798640585, 187500.0, -187500.02235174447, -187500.02235174447, 187500.0, -187500.02235174447, -187500.02235174447, 187500.0, 0.048, -0.032, 1.03, 192.0, 1.0, 128.0, 255.0, 0.0, 32.0, 48.0, 0.0, 0.0, 0.0, 1.6953711868592227E9, 0.0, 2023-09-22 10:26:26.859
19.0, 4807.94963931437, 187500.0, -187500.02235174447, -187500.02235174447, 187500.0, -187500.02235174447, -187500.02235174447, 187500.0, 0.048, -0.032, 1.03, 192.0, 0.0, 0.0, 0.0, 0.0, 0.0, 0.0, 0.0, 0.0, 0.0, 1.6953711868592691E9, 0.0, 2023-09-22 10:26:26.859
20.0, 6730.289069448599, 187500.0, -187500.02235174447, -187500.02235174447, 187500.0, -187500.02235174447, -187500.02235174447, 187500.0, 0.048, -0.032, 1.03, 192.0, 0.0, 0.0, 0.0, 0.0, 0.0, 0.0, 0.0, 0.0, 0.0, 1.6953711868593273E9, 0.0, 2023-09-22 10:26:26.859
21.0, 5646.408277321849, 187500.0, -187500.02235174447, -187500.02235174447, 187500.0, -187500.02235174447, -187500.02235174447, 187500.0, 0.048, -0.032, 1.03, 192.0, 0.0, 0.0, 0.0, 0.0, 0.0, 0.0, 0.0, 0.0, 0.0, 1.6953711868593895E9, 0.0, 2023-09-22 10:26:26.859
22.0, 2628.0510578216386, 187500.0, -187500.02235174447, -187500.02235174447, 187500.0, -187500.02235174447, -187500.02235174447, 187500.0, 0.048, -0.032, 1.03, 192.0, 0.0, 0.0, 0.0, 0.0, 0.0, 0.0, 0.0, 0.0, 0.0, 1.6953711868594432E9, 0.0, 2023-09-22 10:26:26.859
23.0, 149.19789423917464, 187500.0, -187500.02235174447, -187500.02235174447, 187500.0, -187500.02235174447, -187500.02235174447, 187500.0, 0.048, -0.032, 1.03, 192.0, 0.0, 0.0, 0.0, 0.0, 0.0, 0.0, 0.0, 0.0, 0.0, 1.695371186859497E9, 0.0, 2023-09-22 10:26:26.859
24.0, -1735.5459017212274, 187500.0, -187500.02235174447, -187500.02235174447, 187500.0, -187500.02235174447, -187500.02235174447, 187500.0, 0.048, -0.032, 1.03, 192.0, 0.0, 0.0, 0.0, 0.0, 0.0, 0.0, 0.0, 0.0, 0.0, 1.6953711868595378E9, 0.0, 2023-09-22 10:26:26.859
25.0, -677.4143192069912, 187500.0, -187500.02235174447, -187500.02235174447, 187500.0, -187500.02235174447, -187500.02235174447, 187500.0, 0.048, -0.032, 1.03, 192.0, 0.0, 0.0, 0.0, 0.0, 0.0, 0.0, 0.0, 0.0, 0.0, 1.6953711868595798E9, 0.0, 2023-09-22 10:26:26.859
26.0, 2383.701787436222, 187500.0, -187500.02235174447, -187500.02235174447, 187500.0, -187500.02235174447, -187500.02235174447, 187500.0, 0.048, -0.032, 1.03, 192.0, 0.0, 0.0, 0.0, 0.0, 0.0, 0.0, 0.0, 0.0, 0.0, 1.695371186859634E9, 0.0, 2023-09-22 10:26:26.859
27.0, 4985.355435056143, 187500.0, -187500.02235174447, -187500.02235174447, 187500.0, -187500.02235174447, -187500.02235174447, 187500.0, 0.048, -0.032, 1.03, 192.0, 0.0, 0.0, 0.0, 0.0, 0.0, 0.0, 0.0, 0.0, 0.0, 1.695371186859684E9, 0.0, 2023-09-22 10:26:26.859
28.0, 6923.139920608988, 187500.0, -187500.02235174447, -187500.02235174447, 187500.0, -187500.02235174447, -187500.02235174447, 187500.0, 0.04, -0.03, 1.018, 192.0, 1.0, 64.0, 255.0, 16.0, 31.0, 208.0, 0.0, 0.0, 0.0, 1.6953711868597126E9, 0.0, 2023-09-22 10:26:26.859
29.0, 5884.342597048592, 187500.0, -187500.02235174447, -187500.02235174447, 187500.0, -187500.02235174447, -187500.02235174447, 187500.0, 0.04, -0.03, 1.018, 192.0, 0.0, 0.0, 0.0, 0.0, 0.0, 0.0, 0.0, 0.0, 0.0, 1.6953711868597395E9, 0.0, 2023-09-22 10:26:26.859
30.0, 2912.7452269488845, 187500.0, -187500.02235174447, -187500.02235174447, 187500.0, -187500.02235174447, -187500.02235174447, 187500.0, 0.04, -0.03, 1.018, 192.0, 0.0, 0.0, 0.0, 0.0, 0.0, 0.0, 0.0, 0.0, 0.0, 1.6953711868597684E9, 0.0, 2023-09-22 10:26:26.859
31.0, 378.1691644393402, 187500.0, -187500.02235174447, -187500.02235174447, 187500.0, -187500.02235174447, -187500.02235174447, 187500.0, 0.04, -0.03, 1.018, 192.0, 0.0, 0.0, 0.0, 0.0, 0.0, 0.0, 0.0, 0.0, 0.0, 1.695371186860076E9, 0.0, 2023-09-22 10:26:26.860
32.0, -1568.1760392398883, 187500.0, -187500.02235174447, -187500.02235174447, 187500.0, -187500.02235174447, -187500.02235174447, 187500.0, 0.04, -0.03, 1.018, 192.0, 0.0, 0.0, 0.0, 0.0, 0.0, 0.0, 0.0, 0.0, 0.0, 1.6953711868601134E9, 0.0, 2023-09-22 10:26:26.860
33.0, -492.23011639477215, 187500.0, -187500.02235174447, -187500.02235174447, 187500.0, -187500.02235174447, -187500.02235174447, 187500.0, 0.04, -0.03, 1.018, 192.0, 0.0, 0.0, 0.0, 0.0, 0.0, 0.0, 0.0, 0.0, 0.0, 1.695371186860139E9, 0.0, 2023-09-22 10:26:26.860
34.0, 2579.972455498273, 187500.0, -187500.02235174447, -187500.02235174447, 187500.0, -187500.02235174447, -187500.02235174447, 187500.0, 0.04, -0.03, 1.018, 192.0, 0.0, 0.0, 0.0, 0.0, 0.0, 0.0, 0.0, 0.0, 0.0, 1.6953711868601635E9, 0.0, 2023-09-22 10:26:26.860
35.0, 5166.292806421853, 187500.0, -187500.02235174447, -187500.02235174447, 187500.0, -187500.02235174447, -187500.02235174447, 187500.0, 0.04, -0.03, 1.018, 192.0, 0.0, 0.0, 0.0, 0.0, 0.0, 0.0, 0.0, 0.0, 0.0, 1.695371186860188E9, 0.0, 2023-09-22 10:26:26.860
36.0, 7065.118201389098, 187500.0, -187500.02235174447, -187500.02235174447, 187500.0, -187500.02235174447, -187500.02235174447, 187500.0, 0.04, -0.03, 1.018, 192.0, 0.0, 0.0, 0.0, 0.0, 0.0, 0.0, 0.0, 0.0, 0.0, 1.6953711868602123E9, 0.0, 2023-09-22 10:26:26.860
37.0, 6053.433543852991, 187500.0, -187500.02235174447, -187500.02235174447, 187500.0, -187500.02235174447, -187500.02235174447, 187500.0, 0.04, -0.03, 1.018, 192.0, 0.0, 0.0, 0.0, 0.0, 0.0, 0.0, 0.0, 0.0, 0.0, 1.6953711868602371E9, 0.0, 2023-09-22 10:26:26.860
38.0, 3077.6787492845956, 187500.0, -187500.02235174447, -187500.02235174447, 187500.0, -187500.02235174447, -187500.02235174447, 187500.0, 0.04, -0.024, 1.006, 192.0, 1.0, 64.0, 255.0, 64.0, 31.0, 112.0, 0.0, 0.0, 0.0, 1.6953711868602672E9, 0.0, 2023-09-22 10:26:26.860
39.0, 512.81607303811, 187500.0, -187500.02235174447, -187500.02235174447, 187500.0, -187500.02235174447, -187500.02235174447, 187500.0, 0.04, -0.024, 1.006, 192.0, 0.0, 0.0, 0.0, 0.0, 0.0, 0.0, 0.0, 0.0, 0.0, 1.6953711868602967E9, 0.0, 2023-09-22 10:26:26.860
40.0, -1405.7459122831717, 187500.0, -187500.02235174447, -187500.02235174447, 187500.0, -187500.02235174447, -187500.02235174447, 187500.0, 0.04, -0.024, 1.006, 192.0, 0.0, 0.0, 0.0, 0.0, 0.0, 0.0, 0.0, 0.0, 0.0, 1.695371186860323E9, 0.0, 2023-09-22 10:26:26.860
41.0, -318.0876753434748, 187500.0, -187500.02235174447, -187500.02235174447, 187500.0, -187500.02235174447, -187500.02235174447, 187500.0, 0.04, -0.024, 1.006, 192.0, 0.0, 0.0, 0.0, 0.0, 0.0, 0.0, 0.0, 0.0, 0.0, 1.6953711868603487E9, 0.0, 2023-09-22 10:26:26.860
42.0, 2712.7194658183416, 187500.0, -187500.02235174447, -187500.02235174447, 187500.0, -187500.02235174447, -187500.02235174447, 187500.0, 0.04, -0.024, 1.006, 192.0, 0.0, 0.0, 0.0, 0.0, 0.0, 0.0, 0.0, 0.0, 0.0, 1.695371186860373E9, 0.0, 2023-09-22 10:26:26.860
43.0, 5291.8872585162235, 187500.0, -187500.02235174447, -187500.02235174447, 187500.0, -187500.02235174447, -187500.02235174447, 187500.0, 0.04, -0.024, 1.006, 192.0, 0.0, 0.0, 0.0, 0.0, 0.0, 0.0, 0.0, 0.0, 0.0, 1.695371186860397E9, 0.0, 2023-09-22 10:26:26.860
44.0, 7243.663936098092, 187500.0, -187500.02235174447, -187500.02235174447, 187500.0, -187500.02235174447, -187500.02235174447, 187500.0, 0.04, -0.024, 1.006, 192.0, 0.0, 0.0, 0.0, 0.0, 0.0, 0.0, 0.0, 0.0, 0.0, 1.695371186860427E9, 0.0, 2023-09-22 10:26:26.860
45.0, 6193.713092054498, 187500.0, -187500.02235174447, -187500.02235174447, 187500.0, -187500.02235174447, -187500.02235174447, 187500.0, 0.04, -0.024, 1.006, 192.0, 0.0, 0.0, 0.0, 0.0, 0.0, 0.0, 0.0, 0.0, 0.0, 1.695371186860453E9, 0.0, 2023-09-22 10:26:26.860
46.0, 3173.5006777644967, 187500.0, -187500.02235174447, -187500.02235174447, 187500.0, -187500.02235174447, -187500.02235174447, 187500.0, 0.04, -0.024, 1.006, 192.0, 0.0, 0.0, 0.0, 0.0, 0.0, 0.0, 0.0, 0.0, 0.0, 1.6953711868605547E9, 0.0, 2023-09-22 10:26:26.860
47.0, 613.9577166983744, 187500.0, -187500.02235174447, -187500.02235174447, 187500.0, -187500.02235174447, -187500.02235174447, 187500.0, 0.044, -0.034, 1.006, 192.0, 1.0, 96.0, 254.0, 240.0, 31.0, 112.0, 0.0, 0.0, 0.0, 1.6953711868605828E9, 0.0, 2023-09-22 10:26:26.860
48.0, -1311.645068126329, 187500.0, -187500.02235174447, -187500.02235174447, 187500.0, -187500.02235174447, -187500.02235174447, 187500.0, 0.044, -0.034, 1.006, 192.0, 0.0, 0.0, 0.0, 0.0, 0.0, 0.0, 0.0, 0.0, 0.0, 1.6953711868606088E9, 0.0, 2023-09-22 10:26:26.860
49.0, -228.56893879997003, 187500.0, -187500.02235174447, -187500.02235174447, 187500.0, -187500.02235174447, -187500.02235174447, 187500.0, 0.044, -0.034, 1.006, 192.0, 0.0, 0.0, 0.0, 0.0, 0.0, 0.0, 0.0, 0.0, 0.0, 1.6953711868606331E9, 0.0, 2023-09-22 10:26:26.860
50.0, 2849.981528518382, 187500.0, -187500.02235174447, -187500.02235174447, 187500.0, -187500.02235174447, -187500.02235174447, 187500.0, 0.044, -0.034, 1.006, 192.0, 0.0, 0.0, 0.0, 0.0, 0.0, 0.0, 0.0, 0.0, 0.0, 1.6953711868606725E9, 0.0, 2023-09-22 10:26:26.860
51.0, 5376.376852557284, 187500.0, -187500.02235174447, -187500.02235174447, 187500.0, -187500.02235174447, -187500.02235174447, 187500.0, 0.044, -0.034, 1.006, 192.0, 0.0, 0.0, 0.0, 0.0, 0.0, 0.0, 0.0, 0.0, 0.0, 1.6953711868606975E9, 0.0, 2023-09-22 10:26:26.860
52.0, 7287.652169186136, 187500.0, -187500.02235174447, -187500.02235174447, 187500.0, -187500.02235174447, -187500.02235174447, 187500.0, 0.044, -0.034, 1.006, 192.0, 0.0, 0.0, 0.0, 0.0, 0.0, 0.0, 0.0, 0.0, 0.0, 1.6953711868607237E9, 0.0, 2023-09-22 10:26:26.860
53.0, 6240.584700177276, 187500.0, -187500.02235174447, -187500.02235174447, 187500.0, -187500.02235174447, -187500.02235174447, 187500.0, 0.044, -0.034, 1.006, 192.0, 0.0, 0.0, 0.0, 0.0, 0.0, 0.0, 0.0, 0.0, 0.0, 1.6953711868607495E9, 0.0, 2023-09-22 10:26:26.860
54.0, 3240.5782628748734, 187500.0, -187500.02235174447, -187500.02235174447, 187500.0, -187500.02235174447, -187500.02235174447, 187500.0, 0.044, -0.034, 1.006, 192.0, 0.0, 0.0, 0.0, 0.0, 0.0, 0.0, 0.0, 0.0, 0.0, 1.6953711868607752E9, 0.0, 2023-09-22 10:26:26.860
55.0, 712.6630202130104, 187500.0, -187500.02235174447, -187500.02235174447, 187500.0, -187500.02235174447, -187500.02235174447, 187500.0, 0.044, -0.034, 1.006, 192.0, 0.0, 0.0, 0.0, 0.0, 0.0, 0.0, 0.0, 0.0, 0.0, 1.6953711868608005E9, 0.0, 2023-09-22 10:26:26.860
56.0, -1219.779398415017, 187500.0, -187500.02235174447, -187500.02235174447, 187500.0, -187500.02235174447, -187500.02235174447, 187500.0, 0.044, -0.034, 1.006, 192.0, 0.0, 0.0, 0.0, 0.0, 0.0, 0.0, 0.0, 0.0, 0.0, 1.6953711868608267E9, 0.0, 2023-09-22 10:26:26.860
57.0, -157.11041177635335, 187500.0, -187500.02235174447, -187500.02235174447, 187500.0, -187500.02235174447, -187500.02235174447, 187500.0, 0.04, -0.034, 1.006, 192.0, 1.0, 64.0, 254.0, 240.0, 31.0, 112.0, 0.0, 0.0, 0.0, 1.695371186860862E9, 0.0, 2023-09-22 10:26:26.860
58.0, 2863.1914094914687, 187500.0, -187500.02235174447, -187500.02235174447, 187500.0, -187500.02235174447, -187500.02235174447, 187500.0, 0.04, -0.034, 1.006, 192.0, 0.0, 0.0, 0.0, 0.0, 0.0, 0.0, 0.0, 0.0, 0.0, 1.6953711868608892E9, 0.0, 2023-09-22 10:26:26.860
59.0, 5470.924731603233, 187500.0, -187500.02235174447, -187500.02235174447, 187500.0, -187500.02235174447, -187500.02235174447, 187500.0, 0.04, -0.034, 1.006, 192.0, 0.0, 0.0, 0.0, 0.0, 0.0, 0.0, 0.0, 0.0, 0.0, 1.695371186860915E9, 0.0, 2023-09-22 10:26:26.860
60.0, 7436.067752369375, 187500.0, -187500.02235174447, -187500.02235174447, 187500.0, -187500.02235174447, -187500.02235174447, 187500.0, 0.04, -0.034, 1.006, 192.0, 0.0, 0.0, 0.0, 0.0, 0.0, 0.0, 0.0, 0.0, 0.0, 1.6953711868609412E9, 0.0, 2023-09-22 10:26:26.860
61.0, 6329.611698342765, 187500.0, -187500.02235174447, -187500.02235174447, 187500.0, -187500.02235174447, -187500.02235174447, 187500.0, 0.04, -0.034, 1.006, 192.0, 0.0, 0.0, 0.0, 0.0, 0.0, 0.0, 0.0, 0.0, 0.0, 1.6953711868610885E9, 0.0, 2023-09-22 10:26:26.861
62.0, 3302.8949264162693, 187500.0, -187500.02235174447, -187500.02235174447, 187500.0, -187500.02235174447, -187500.02235174447, 187500.0, 0.04, -0.034, 1.006, 192.0, 0.0, 0.0, 0.0, 0.0, 0.0, 0.0, 0.0, 0.0, 0.0, 1.6953711868611193E9, 0.0, 2023-09-22 10:26:26.861
63.0, 753.1643811660268, 187500.0, -187500.02235174447, -187500.02235174447, 187500.0, -187500.02235174447, -187500.02235174447, 187500.0, 0.04, -0.034, 1.006, 192.0, 0.0, 0.0, 0.0, 0.0, 0.0, 0.0, 0.0, 0.0, 0.0, 1.6953711868611467E9, 0.0, 2023-09-22 10:26:26.861
64.0, -1171.7678513250175, 187500.0, -187500.02235174447, -187500.02235174447, 187500.0, -187500.02235174447, -187500.02235174447, 187500.0, 0.04, -0.034, 1.006, 192.0, 0.0, 0.0, 0.0, 0.0, 0.0, 0.0, 0.0, 0.0, 0.0, 1.6953711868611736E9, 0.0, 2023-09-22 10:26:26.861
65.0, -110.17174842020852, 187500.0, -187500.02235174447, -187500.02235174447, 187500.0, -187500.02235174447, -187500.02235174447, 187500.0, 0.04, -0.034, 1.006, 192.0, 0.0, 0.0, 0.0, 0.0, 0.0, 0.0, 0.0, 0.0, 0.0, 1.6953711868612063E9, 0.0, 2023-09-22 10:26:26.861
66.0, 2957.2251984149457, 187500.0, -187500.02235174447, -187500.02235174447, 187500.0, -187500.02235174447, -187500.02235174447, 187500.0, 0.04, -0.034, 1.006, 192.0, 0.0, 0.0, 0.0, 0.0, 0.0, 0.0, 0.0, 0.0, 0.0, 1.695371186861232E9, 0.0, 2023-09-22 10:26:26.861
67.0, 5514.532985035537, 187500.0, -187500.02235174447, -187500.02235174447, 187500.0, -187500.02235174447, -187500.02235174447, 187500.0, 0.034, -0.032, 1.004, 192.0, 1.0, 16.0, 255.0, 0.0, 31.0, 96.0, 0.0, 0.0, 0.0, 1.695371186861257E9, 0.0, 2023-09-22 10:26:26.861
68.0, 7432.647935467713, 187500.0, -187500.02235174447, -187500.02235174447, 187500.0, -187500.02235174447, -187500.02235174447, 187500.0, 0.034, -0.032, 1.004, 192.0, 0.0, 0.0, 0.0, 0.0, 0.0, 0.0, 0.0, 0.0, 0.0, 1.695371186861284E9, 0.0, 2023-09-22 10:26:26.861
69.0, 6360.390050457722, 187500.0, -187500.02235174447, -187500.02235174447, 187500.0, -187500.02235174447, -187500.02235174447, 187500.0, 0.034, -0.032, 1.004, 192.0, 0.0, 0.0, 0.0, 0.0, 0.0, 0.0, 0.0, 0.0, 0.0, 1.6953711868613105E9, 0.0, 2023-09-22 10:26:26.861
70.0, 3373.302921450487, 187500.0, -187500.02235174447, -187500.02235174447, 187500.0, -187500.02235174447, -187500.02235174447, 187500.0, 0.034, -0.032, 1.004, 192.0, 0.0, 0.0, 0.0, 0.0, 0.0, 0.0, 0.0, 0.0, 0.0, 1.695371186861338E9, 0.0, 2023-09-22 10:26:26.861
71.0, 826.4333994905234, 187500.0, -187500.02235174447, -187500.02235174447, 187500.0, -187500.02235174447, -187500.02235174447, 187500.0, 0.034, -0.032, 1.004, 192.0, 0.0, 0.0, 0.0, 0.0, 0.0, 0.0, 0.0, 0.0, 0.0, 1.6953711868613656E9, 0.0, 2023-09-22 10:26:26.861
72.0, -1142.621176555297, 187500.0, -187500.02235174447, -187500.02235174447, 187500.0, -187500.02235174447, -187500.02235174447, 187500.0, 0.034, -0.032, 1.004, 192.0, 0.0, 0.0, 0.0, 0.0, 0.0, 0.0, 0.0, 0.0, 0.0, 1.6953711868613925E9, 0.0, 2023-09-22 10:26:26.861
73.0, -78.90165792723393, 187500.0, -187500.02235174447, -187500.02235174447, 187500.0, -187500.02235174447, -187500.02235174447, 187500.0, 0.034, -0.032, 1.004, 192.0, 0.0, 0.0, 0.0, 0.0, 0.0, 0.0, 0.0, 0.0, 0.0, 1.695371186861421E9, 0.0, 2023-09-22 10:26:26.861
74.0, 3016.5243764548754, 187500.0, -187500.02235174447, -187500.02235174447, 187500.0, -187500.02235174447, -187500.02235174447, 187500.0, 0.034, -0.032, 1.004, 192.0, 0.0, 0.0, 0.0, 0.0, 0.0, 0.0, 0.0, 0.0, 0.0, 1.6953711868614483E9, 0.0, 2023-09-22 10:26:26.861
75.0, 5578.861305577911, 187500.0, -187500.02235174447, -187500.02235174447, 187500.0, -187500.02235174447, -187500.02235174447, 187500.0, 0.034, -0.032, 1.004, 192.0, 0.0, 0.0, 0.0, 0.0, 0.0, 0.0, 0.0, 0.0, 0.0, 1.6953711868614757E9, 0.0, 2023-09-22 10:26:26.861
76.0, 7492.684721074667, 187500.0, -187500.02235174447, -187500.02235174447, 187500.0, -187500.02235174447, -187500.02235174447, 187500.0, 0.034, -0.032, 1.004, 192.0, 0.0, 0.0, 0.0, 0.0, 0.0, 0.0, 0.0, 0.0, 0.0, 1.6953711868615775E9, 0.0, 2023-09-22 10:26:26.861
77.0, 6376.818582632373, 187500.0, -187500.02235174447, -187500.02235174447, 187500.0, -187500.02235174447, -187500.02235174447, 187500.0, 0.036000000000000004, -0.024, 1.008, 192.0, 1.0, 32.0, 255.0, 64.0, 31.0, 128.0, 0.0, 0.0, 0.0, 1.6953711868616085E9, 0.0, 2023-09-22 10:26:26.861
78.0, 3390.960799570179, 187500.0, -187500.02235174447, -187500.02235174447, 187500.0, -187500.02235174447, -187500.02235174447, 187500.0, 0.036000000000000004, -0.024, 1.008, 192.0, 0.0, 0.0, 0.0, 0.0, 0.0, 0.0, 0.0, 0.0, 0.0, 1.6953711868616383E9, 0.0, 2023-09-22 10:26:26.861
79.0, 853.8813416816404, 187500.0, -187500.02235174447, -187500.02235174447, 187500.0, -187500.02235174447, -187500.02235174447, 187500.0, 0.036000000000000004, -0.024, 1.008, 192.0, 0.0, 0.0, 0.0, 0.0, 0.0, 0.0, 0.0, 0.0, 0.0, 1.695371186861666E9, 0.0, 2023-09-22 10:26:26.861
80.0, -1083.7019781711076, 187500.0, -187500.02235174447, -187500.02235174447, 187500.0, -187500.02235174447, -187500.02235174447, 187500.0, 0.036000000000000004, -0.024, 1.008, 192.0, 0.0, 0.0, 0.0, 0.0, 0.0, 0.0, 0.0, 0.0, 0.0, 1.695371186861695E9, 0.0, 2023-09-22 10:26:26.861
81.0, -45.575206944371104, 187500.0, -187500.02235174447, -187500.02235174447, 187500.0, -187500.02235174447, -187500.02235174447, 187500.0, 0.036000000000000004, -0.024, 1.008, 192.0, 0.0, 0.0, 0.0, 0.0, 0.0, 0.0, 0.0, 0.0, 0.0, 1.6953711868617215E9, 0.0, 2023-09-22 10:26:26.861
82.0, 2998.3524082127105, 187500.0, -187500.02235174447, -187500.02235174447, 187500.0, -187500.02235174447, -187500.02235174447, 187500.0, 0.036000000000000004, -0.024, 1.008, 192.0, 0.0, 0.0, 0.0, 0.0, 0.0, 0.0, 0.0, 0.0, 0.0, 1.6953711868617482E9, 0.0, 2023-09-22 10:26:26.861
83.0, 5600.453090721738, 187500.0, -187500.02235174447, -187500.02235174447, 187500.0, -187500.02235174447, -187500.02235174447, 187500.0, 0.036000000000000004, -0.024, 1.008, 192.0, 0.0, 0.0, 0.0, 0.0, 0.0, 0.0, 0.0, 0.0, 0.0, 1.695371186861775E9, 0.0, 2023-09-22 10:26:26.861
84.0, 7520.713808621623, 187500.0, -187500.02235174447, -187500.02235174447, 187500.0, -187500.02235174447, -187500.02235174447, 187500.0, 0.036000000000000004, -0.024, 1.008, 192.0, 0.0, 0.0, 0.0, 0.0, 0.0, 0.0, 0.0, 0.0, 0.0, 1.6953711868618011E9, 0.0, 2023-09-22 10:26:26.861
85.0, 6517.7463314230845, 187500.0, -187500.02235174447, -187500.02235174447, 187500.0, -187500.02235174447, -187500.02235174447, 187500.0, 0.036000000000000004, -0.024, 1.008, 192.0, 0.0, 0.0, 0.0, 0.0, 0.0, 0.0, 0.0, 0.0, 0.0, 1.6953711868618276E9, 0.0, 2023-09-22 10:26:26.861
86.0, 3474.243399410653, 187500.0, -187500.02235174447, -187500.02235174447, 187500.0, -187500.02235174447, -187500.02235174447, 187500.0, 0.036000000000000004, -0.024, 1.008, 192.0, 0.0, 0.0, 0.0, 0.0, 0.0, 0.0, 0.0, 0.0, 0.0, 1.6953711868619115E9, 0.0, 2023-09-22 10:26:26.861
87.0, 912.9346505325617, 187500.0, -187500.02235174447, -187500.02235174447, 187500.0, -187500.02235174447, -187500.02235174447, 187500.0, 0.03, -0.02, 1.008, 192.0, 0.0, 240.0, 255.0, 96.0, 31.0, 128.0, 0.0, 0.0, 0.0, 1.6953711868619602E9, 0.0, 2023-09-22 10:26:26.861
88.0, -948.988014338972, 187500.0, -187500.02235174447, -187500.02235174447, 187500.0, -187500.02235174447, -187500.02235174447, 187500.0, 0.03, -0.02, 1.008, 192.0, 0.0, 0.0, 0.0, 0.0, 0.0, 0.0, 0.0, 0.0, 0.0, 1.6953711868619885E9, 0.0, 2023-09-22 10:26:26.861
89.0, 86.59065801985956, 187500.0, -187500.02235174447, -187500.02235174447, 187500.0, -187500.02235174447, -187500.02235174447, 187500.0, 0.03, -0.02, 1.008, 192.0, 0.0, 0.0, 0.0, 0.0, 0.0, 0.0, 0.0, 0.0, 0.0, 1.6953711868620155E9, 0.0, 2023-09-22 10:26:26.862
90.0, 3082.506726086942, 187500.0, -187500.02235174447, -187500.02235174447, 187500.0, -187500.02235174447, -187500.02235174447, 187500.0, 0.03, -0.02, 1.008, 192.0, 0.0, 0.0, 0.0, 0.0, 0.0, 0.0, 0.0, 0.0, 0.0, 1.695371186862042E9, 0.0, 2023-09-22 10:26:26.862
91.0, 5681.1205364609405, 187500.0, -187500.02235174447, -187500.02235174447, 187500.0, -187500.02235174447, -187500.02235174447, 187500.0, 0.03, -0.02, 1.008, 192.0, 0.0, 0.0, 0.0, 0.0, 0.0, 0.0, 0.0, 0.0, 0.0, 1.6953711868621123E9, 0.0, 2023-09-22 10:26:26.862
92.0, 7615.954591745686, 187500.0, -187500.02235174447, -187500.02235174447, 187500.0, -187500.02235174447, -187500.02235174447, 187500.0, 0.03, -0.02, 1.008, 192.0, 0.0, 0.0, 0.0, 0.0, 0.0, 0.0, 0.0, 0.0, 0.0, 1.69537118686214E9, 0.0, 2023-09-22 10:26:26.862
93.0, 6517.589869211897, 187500.0, -187500.02235174447, -187500.02235174447, 187500.0, -187500.02235174447, -187500.02235174447, 187500.0, 0.03, -0.02, 1.008, 192.0, 0.0, 0.0, 0.0, 0.0, 0.0, 0.0, 0.0, 0.0, 0.0, 1.6953711868621662E9, 0.0, 2023-09-22 10:26:26.862
94.0, 3500.5290508900944, 187500.0, -187500.02235174447, -187500.02235174447, 187500.0, -187500.02235174447, -187500.02235174447, 187500.0, 0.03, -0.02, 1.008, 192.0, 0.0, 0.0, 0.0, 0.0, 0.0, 0.0, 0.0, 0.0, 0.0, 1.695371186862192E9, 0.0, 2023-09-22 10:26:26.862
95.0, 945.0317555703826, 187500.0, -187500.02235174447, -187500.02235174447, 187500.0, -187500.02235174447, -187500.02235174447, 187500.0, 0.03, -0.02, 1.008, 192.0, 0.0, 0.0, 0.0, 0.0, 0.0, 0.0, 0.0, 0.0, 0.0, 1.695371186862218E9, 0.0, 2023-09-22 10:26:26.862
96.0, -980.7721949544186, 187500.0, -187500.02235174447, -187500.02235174447, 187500.0, -187500.02235174447, -187500.02235174447, 187500.0, 0.03, -0.02, 1.008, 192.0, 0.0, 0.0, 0.0, 0.0, 0.0, 0.0, 0.0, 0.0, 0.0, 1.695371186862244E9, 0.0, 2023-09-22 10:26:26.862
97.0, 61.93668388565587, 187500.0, -187500.02235174447, -187500.02235174447, 187500.0, -187500.02235174447, -187500.02235174447, 187500.0, 0.034, -0.026000000000000002, 1.0, 192.0, 1.0, 16.0, 255.0, 48.0, 31.0, 64.0, 0.0, 0.0, 0.0, 1.69537118686227E9, 0.0, 2023-09-22 10:26:26.862
98.0, 3106.400740909665, 187500.0, -187500.02235174447, -187500.02235174447, 187500.0, -187500.02235174447, -187500.02235174447, 187500.0, 0.034, -0.026000000000000002, 1.0, 192.0, 0.0, 0.0, 0.0, 0.0, 0.0, 0.0, 0.0, 0.0, 0.0, 1.6953711868622983E9, 0.0, 2023-09-22 10:26:26.862
99.0, 5714.402283954893, 187500.0, -187500.02235174447, -187500.02235174447, 187500.0, -187500.02235174447, -187500.02235174447, 187500.0, 0.034, -0.026000000000000002, 1.0, 192.0, 0.0, 0.0, 0.0, 0.0, 0.0, 0.0, 0.0, 0.0, 0.0, 1.6953711868623245E9, 0.0, 2023-09-22 10:26:26.862
100.0, 7631.869033797865, 187500.0, -187500.02235174447, -187500.02235174447, 187500.0, -187500.02235174447, -187500.02235174447, 187500.0, 0.034, -0.026000000000000002, 1.0, 192.0, 0.0, 0.0, 0.0, 0.0, 0.0, 0.0, 0.0, 0.0, 0.0, 1.6953711868623507E9, 0.0, 2023-09-22 10:26:26.862
101.0, 6509.967924352637, 187500.0, -187500.02235174447, -187500.02235174447, 187500.0, -187500.02235174447, -187500.02235174447, 187500.0, 0.034, -0.026000000000000002, 1.0, 192.0, 0.0, 0.0, 0.0, 0.0, 0.0, 0.0, 0.0, 0.0, 0.0, 1.6953711868623765E9, 0.0, 2023-09-22 10:26:26.862
102.0, 3471.0694516979997, 187500.0, -187500.02235174447, -187500.02235174447, 187500.0, -187500.02235174447, -187500.02235174447, 187500.0, 0.034, -0.026000000000000002, 1.0, 192.0, 0.0, 0.0, 0.0, 0.0, 0.0, 0.0, 0.0, 0.0, 0.0, 1.695371186862403E9, 0.0, 2023-09-22 10:26:26.862
103.0, 927.8656158287068, 187500.0, -187500.02235174447, -187500.02235174447, 187500.0, -187500.02235174447, -187500.02235174447, 187500.0, 0.034, -0.026000000000000002, 1.0, 192.0, 0.0, 0.0, 0.0, 0.0, 0.0, 0.0, 0.0, 0.0, 0.0, 1.6953711868624282E9, 0.0, 2023-09-22 10:26:26.862
104.0, -953.4360114855781, 187500.0, -187500.02235174447, -187500.02235174447, 187500.0, -187500.02235174447, -187500.02235174447, 187500.0, 0.034, -0.026000000000000002, 1.0, 192.0, 0.0, 0.0, 0.0, 0.0, 0.0, 0.0, 0.0, 0.0, 0.0, 1.695371186862455E9, 0.0, 2023-09-22 10:26:26.862
105.0, 104.82968149539012, 187500.0, -187500.02235174447, -187500.02235174447, 187500.0, -187500.02235174447, -187500.02235174447, 187500.0, 0.034, -0.026000000000000002, 1.0, 192.0, 0.0, 0.0, 0.0, 0.0, 0.0, 0.0, 0.0, 0.0, 0.0, 1.695371186862481E9, 0.0, 2023-09-22 10:26:26.862
106.0, 3105.305505431355, 187500.0, -187500.02235174447, -187500.02235174447, 187500.0, -187500.02235174447, -187500.02235174447, 187500.0, 0.034, -0.026000000000000002, 1.0, 192.0, 0.0, 0.0, 0.0, 0.0, 0.0, 0.0, 0.0, 0.0, 0.0, 1.695371186862542E9, 0.0, 2023-09-22 10:26:26.862
107.0, 5660.199303650774, 187500.0, -187500.02235174447, -187500.02235174447, 187500.0, -187500.02235174447, -187500.02235174447, 187500.0, 0.036000000000000004, -0.024, 1.004, 192.0, 1.0, 32.0, 255.0, 64.0, 31.0, 96.0, 0.0, 0.0, 0.0, 1.695371186862568E9, 0.0, 2023-09-22 10:26:26.862
108.0, 7590.630065277823, 187500.0, -187500.02235174447, -187500.02235174447, 187500.0, -187500.02235174447, -187500.02235174447, 187500.0, 0.036000000000000004, -0.024, 1.004, 192.0, 0.0, 0.0, 0.0, 0.0, 0.0, 0.0, 0.0, 0.0, 0.0, 1.6953711868625977E9, 0.0, 2023-09-22 10:26:26.862
109.0, 6552.995032429103, 187500.0, -187500.02235174447, -187500.02235174447, 187500.0, -187500.02235174447, -187500.02235174447, 187500.0, 0.036000000000000004, -0.024, 1.004, 192.0, 0.0, 0.0, 0.0, 0.0, 0.0, 0.0, 0.0, 0.0, 0.0, 1.6953711868626227E9, 0.0, 2023-09-22 10:26:26.862
110.0, 3544.561987467049, 187500.0, -187500.02235174447, -187500.02235174447, 187500.0, -187500.02235174447, -187500.02235174447, 187500.0, 0.036000000000000004, -0.024, 1.004, 192.0, 0.0, 0.0, 0.0, 0.0, 0.0, 0.0, 0.0, 0.0, 0.0, 1.695371186862648E9, 0.0, 2023-09-22 10:26:26.862
111.0, 942.148380535648, 187500.0, -187500.02235174447, -187500.02235174447, 187500.0, -187500.02235174447, -187500.02235174447, 187500.0, 0.036000000000000004, -0.024, 1.004, 192.0, 0.0, 0.0, 0.0, 0.0, 0.0, 0.0, 0.0, 0.0, 0.0, 1.695371186862674E9, 0.0, 2023-09-22 10:26:26.862
112.0, -999.726474252519, 187500.0, -187500.02235174447, -187500.02235174447, 187500.0, -187500.02235174447, -187500.02235174447, 187500.0, 0.036000000000000004, -0.024, 1.004, 192.0, 0.0, 0.0, 0.0, 0.0, 0.0, 0.0, 0.0, 0.0, 0.0, 1.6953711868626993E9, 0.0, 2023-09-22 10:26:26.862
113.0, 99.0405796814656, 187500.0, -187500.02235174447, -187500.02235174447, 187500.0, -187500.02235174447, -187500.02235174447, 187500.0, 0.036000000000000004, -0.024, 1.004, 192.0, 0.0, 0.0, 0.0, 0.0, 0.0, 0.0, 0.0, 0.0, 0.0, 1.6953711868627257E9, 0.0, 2023-09-22 10:26:26.862
114.0, 3164.939959638114, 187500.0, -187500.02235174447, -187500.02235174447, 187500.0, -187500.02235174447, -187500.02235174447, 187500.0, 0.036000000000000004, -0.024, 1.004, 192.0, 0.0, 0.0, 0.0, 0.0, 0.0, 0.0, 0.0, 0.0, 0.0, 1.6953711868627532E9, 0.0, 2023-09-22 10:26:26.862
115.0, 5737.7598569106885, 187500.0, -187500.02235174447, -187500.02235174447, 187500.0, -187500.02235174447, -187500.02235174447, 187500.0, 0.036000000000000004, -0.024, 1.004, 192.0, 0.0, 0.0, 0.0, 0.0, 0.0, 0.0, 0.0, 0.0, 0.0, 1.6953711868627918E9, 0.0, 2023-09-22 10:26:26.862
116.0, 7661.999185323619, 187500.0, -187500.02235174447, -187500.02235174447, 187500.0, -187500.02235174447, -187500.02235174447, 187500.0, 0.036000000000000004, -0.024, 1.004, 192.0, 0.0, 0.0, 0.0, 0.0, 0.0, 0.0, 0.0, 0.0, 0.0, 1.6953711868628414E9, 0.0, 2023-09-22 10:26:26.862
117.0, 6542.1097328793685, 187500.0, -187500.02235174447, -187500.02235174447, 187500.0, -187500.02235174447, -187500.02235174447, 187500.0, 0.036000000000000004, -0.032, 1.006, 192.0, 1.0, 32.0, 255.0, 0.0, 31.0, 112.0, 0.0, 0.0, 0.0, 1.6953711868628836E9, 0.0, 2023-09-22 10:26:26.862
118.0, 3497.5786206219937, 187500.0, -187500.02235174447, -187500.02235174447, 187500.0, -187500.02235174447, -187500.02235174447, 187500.0, 0.036000000000000004, -0.032, 1.006, 192.0, 0.0, 0.0, 0.0, 0.0, 0.0, 0.0, 0.0, 0.0, 0.0, 1.6953711868629131E9, 0.0, 2023-09-22 10:26:26.862
119.0, 960.7450319224635, 187500.0, -187500.02235174447, -187500.02235174447, 187500.0, -187500.02235174447, -187500.02235174447, 187500.0, 0.036000000000000004, -0.032, 1.006, 192.0, 0.0, 0.0, 0.0, 0.0, 0.0, 0.0, 0.0, 0.0, 0.0, 1.695371186862939E9, 0.0, 2023-09-22 10:26:26.862
120.0, -911.4370836540561, 187500.0, -187500.02235174447, -187500.02235174447, 187500.0, -187500.02235174447, -187500.02235174447, 187500.0, 0.036000000000000004, -0.032, 1.006, 192.0, 0.0, 0.0, 0.0, 0.0, 0.0, 0.0, 0.0, 0.0, 0.0, 1.695371186862964E9, 0.0, 2023-09-22 10:26:26.862
121.0, 139.2737197010183, 187500.0, -187500.02235174447, -187500.02235174447, 187500.0, -187500.02235174447, -187500.02235174447, 187500.0, 0.036000000000000004, -0.032, 1.006, 192.0, 0.0, 0.0, 0.0, 0.0, 0.0, 0.0, 0.0, 0.0, 0.0, 1.6953711873373733E9, 0.0, 2023-09-22 10:26:27.337
122.0, 3166.214009072067, 187500.0, -187500.02235174447, -187500.02235174447, 187500.0, -187500.02235174447, -187500.02235174447, 187500.0, 0.036000000000000004, -0.032, 1.006, 192.0, 0.0, 0.0, 0.0, 0.0, 0.0, 0.0, 0.0, 0.0, 0.0, 1.695371187337551E9, 0.0, 2023-09-22 10:26:27.337
123.0, 5744.107752335996, 187500.0, -187500.02235174447, -187500.02235174447, 187500.0, -187500.02235174447, -187500.02235174447, 187500.0, 0.036000000000000004, -0.032, 1.006, 192.0, 0.0, 0.0, 0.0, 0.0, 0.0, 0.0, 0.0, 0.0, 0.0, 1.6953711873375933E9, 0.0, 2023-09-22 10:26:27.337
124.0, 7667.385955737348, 187500.0, -187500.02235174447, -187500.02235174447, 187500.0, -187500.02235174447, -187500.02235174447, 187500.0, 0.036000000000000004, -0.032, 1.006, 192.0, 0.0, 0.0, 0.0, 0.0, 0.0, 0.0, 0.0, 0.0, 0.0, 1.695371187337634E9, 0.0, 2023-09-22 10:26:27.337
125.0, 6589.048396235514, 187500.0, -187500.02235174447, -187500.02235174447, 187500.0, -187500.02235174447, -187500.02235174447, 187500.0, 0.036000000000000004, -0.032, 1.006, 192.0, 0.0, 0.0, 0.0, 0.0, 0.0, 0.0, 0.0, 0.0, 0.0, 1.6953711873376713E9, 0.0, 2023-09-22 10:26:27.337
126.0, 3539.376382753418, 187500.0, -187500.02235174447, -187500.02235174447, 187500.0, -187500.02235174447, -187500.02235174447, 187500.0, 0.036000000000000004, -0.032, 1.006, 192.0, 0.0, 0.0, 0.0, 0.0, 0.0, 0.0, 0.0, 0.0, 0.0, 1.6953711873377118E9, 0.0, 2023-09-22 10:26:27.337
127.0, 970.3115785493349, 187500.0, -187500.02235174447, -187500.02235174447, 187500.0, -187500.02235174447, -187500.02235174447, 187500.0, 0.04, -0.028, 1.006, 192.0, 1.0, 64.0, 255.0, 32.0, 31.0, 112.0, 0.0, 0.0, 0.0, 1.695371187337751E9, 0.0, 2023-09-22 10:26:27.337
128.0, -915.5498046338327, 187500.0, -187500.02235174447, -187500.02235174447, 187500.0, -187500.02235174447, -187500.02235174447, 187500.0, 0.04, -0.028, 1.006, 192.0, 0.0, 0.0, 0.0, 0.0, 0.0, 0.0, 0.0, 0.0, 0.0, 1.695371187337793E9, 0.0, 2023-09-22 10:26:27.337
129.0, 196.44948201769378, 187500.0, -187500.02235174447, -187500.02235174447, 187500.0, -187500.02235174447, -187500.02235174447, 187500.0, 0.04, -0.028, 1.006, 192.0, 0.0, 0.0, 0.0, 0.0, 0.0, 0.0, 0.0, 0.0, 0.0, 1.6953711873378308E9, 0.0, 2023-09-22 10:26:27.337
130.0, 3220.5734515873733, 187500.0, -187500.02235174447, -187500.02235174447, 187500.0, -187500.02235174447, -187500.02235174447, 187500.0, 0.04, -0.028, 1.006, 192.0, 0.0, 0.0, 0.0, 0.0, 0.0, 0.0, 0.0, 0.0, 0.0, 1.6953711873378701E9, 0.0, 2023-09-22 10:26:27.337
131.0, 5771.958025927309, 187500.0, -187500.02235174447, -187500.02235174447, 187500.0, -187500.02235174447, -187500.02235174447, 187500.0, 0.04, -0.028, 1.006, 192.0, 0.0, 0.0, 0.0, 0.0, 0.0, 0.0, 0.0, 0.0, 0.0, 1.6953711873379552E9, 0.0, 2023-09-22 10:26:27.337
132.0, 7703.036988143563, 187500.0, -187500.02235174447, -187500.02235174447, 187500.0, -187500.02235174447, -187500.02235174447, 187500.0, 0.04, -0.028, 1.006, 192.0, 0.0, 0.0, 0.0, 0.0, 0.0, 0.0, 0.0, 0.0, 0.0, 1.6953711873380013E9, 0.0, 2023-09-22 10:26:27.338
133.0, 6611.757768602106, 187500.0, -187500.02235174447, -187500.02235174447, 187500.0, -187500.02235174447, -187500.02235174447, 187500.0, 0.04, -0.028, 1.006, 192.0, 0.0, 0.0, 0.0, 0.0, 0.0, 0.0, 0.0, 0.0, 0.0, 1.6953711873380415E9, 0.0, 2023-09-22 10:26:27.338
134.0, 3570.288845335108, 187500.0, -187500.02235174447, -187500.02235174447, 187500.0, -187500.02235174447, -187500.02235174447, 187500.0, 0.04, -0.028, 1.006, 192.0, 0.0, 0.0, 0.0, 0.0, 0.0, 0.0, 0.0, 0.0, 0.0, 1.6953711873380897E9, 0.0, 2023-09-22 10:26:27.338
135.0, 1024.2910414089015, 187500.0, -187500.02235174447, -187500.02235174447, 187500.0, -187500.02235174447, -187500.02235174447, 187500.0, 0.04, -0.028, 1.006, 192.0, 0.0, 0.0, 0.0, 0.0, 0.0, 0.0, 0.0, 0.0, 0.0, 1.6953711873381307E9, 0.0, 2023-09-22 10:26:27.338
136.0, -914.7227900889862, 187500.0, -187500.02235174447, -187500.02235174447, 187500.0, -187500.02235174447, -187500.02235174447, 187500.0, 0.04, -0.028, 1.006, 192.0, 0.0, 0.0, 0.0, 0.0, 0.0, 0.0, 0.0, 0.0, 0.0, 1.6953711873382976E9, 0.0, 2023-09-22 10:26:27.338
137.0, 124.47686487160503, 187500.0, -187500.02235174447, -187500.02235174447, 187500.0, -187500.02235174447, -187500.02235174447, 187500.0, 0.034, -0.022, 1.006, 192.0, 1.0, 16.0, 255.0, 80.0, 31.0, 112.0, 0.0, 0.0, 0.0, 1.6953711873383384E9, 0.0, 2023-09-22 10:26:27.338
138.0, 3195.874773964259, 187500.0, -187500.02235174447, -187500.02235174447, 187500.0, -187500.02235174447, -187500.02235174447, 187500.0, 0.034, -0.022, 1.006, 192.0, 0.0, 0.0, 0.0, 0.0, 0.0, 0.0, 0.0, 0.0, 0.0, 1.6953711873383813E9, 0.0, 2023-09-22 10:26:27.338
139.0, 5813.554622358635, 187500.0, -187500.02235174447, -187500.02235174447, 187500.0, -187500.02235174447, -187500.02235174447, 187500.0, 0.034, -0.022, 1.006, 192.0, 0.0, 0.0, 0.0, 0.0, 0.0, 0.0, 0.0, 0.0, 0.0, 1.6953711873384213E9, 0.0, 2023-09-22 10:26:27.338
140.0, 7726.282802377082, 187500.0, -187500.02235174447, -187500.02235174447, 187500.0, -187500.02235174447, -187500.02235174447, 187500.0, 0.034, -0.022, 1.006, 192.0, 0.0, 0.0, 0.0, 0.0, 0.0, 0.0, 0.0, 0.0, 0.0, 1.6953711873384626E9, 0.0, 2023-09-22 10:26:27.338
141.0, 6662.362118048921, 187500.0, -187500.02235174447, -187500.02235174447, 187500.0, -187500.02235174447, -187500.02235174447, 187500.0, 0.034, -0.022, 1.006, 192.0, 0.0, 0.0, 0.0, 0.0, 0.0, 0.0, 0.0, 0.0, 0.0, 1.6953711873385031E9, 0.0, 2023-09-22 10:26:27.338
142.0, 3603.3470753845068, 187500.0, -187500.02235174447, -187500.02235174447, 187500.0, -187500.02235174447, -187500.02235174447, 187500.0, 0.034, -0.022, 1.006, 192.0, 0.0, 0.0, 0.0, 0.0, 0.0, 0.0, 0.0, 0.0, 0.0, 1.6953711873385432E9, 0.0, 2023-09-22 10:26:27.338
143.0, 1088.8428793958283, 187500.0, -187500.02235174447, -187500.02235174447, 187500.0, -187500.02235174447, -187500.02235174447, 187500.0, 0.034, -0.022, 1.006, 192.0, 0.0, 0.0, 0.0, 0.0, 0.0, 0.0, 0.0, 0.0, 0.0, 1.695371187338585E9, 0.0, 2023-09-22 10:26:27.338
144.0, -857.569379516766, 187500.0, -187500.02235174447, -187500.02235174447, 187500.0, -187500.02235174447, -187500.02235174447, 187500.0, 0.034, -0.022, 1.006, 192.0, 0.0, 0.0, 0.0, 0.0, 0.0, 0.0, 0.0, 0.0, 0.0, 1.695371187338627E9, 0.0, 2023-09-22 10:26:27.338
145.0, 186.7264731796352, 187500.0, -187500.02235174447, -187500.02235174447, 187500.0, -187500.02235174447, -187500.02235174447, 187500.0, 0.034, -0.022, 1.006, 192.0, 0.0, 0.0, 0.0, 0.0, 0.0, 0.0, 0.0, 0.0, 0.0, 1.6953711873386688E9, 0.0, 2023-09-22 10:26:27.338
146.0, 3226.7648848014933, 187500.0, -187500.02235174447, -187500.02235174447, 187500.0, -187500.02235174447, -187500.02235174447, 187500.0, 0.034, -0.022, 1.006, 192.0, 0.0, 0.0, 0.0, 0.0, 0.0, 0.0, 0.0, 0.0, 0.0, 1.69537118733871E9, 0.0, 2023-09-22 10:26:27.338
147.0, 5797.841346006554, 187500.0, -187500.02235174447, -187500.02235174447, 187500.0, -187500.02235174447, -187500.02235174447, 187500.0, 0.036000000000000004, -0.028, 1.008, 192.0, 1.0, 32.0, 255.0, 32.0, 31.0, 128.0, 0.0, 0.0, 0.0, 1.695371187338752E9, 0.0, 2023-09-22 10:26:27.338
148.0, 7724.539366309567, 187500.0, -187500.02235174447, -187500.02235174447, 187500.0, -187500.02235174447, -187500.02235174447, 187500.0, 0.036000000000000004, -0.028, 1.008, 192.0, 0.0, 0.0, 0.0, 0.0, 0.0, 0.0, 0.0, 0.0, 0.0, 1.6953711873387957E9, 0.0, 2023-09-22 10:26:27.338
149.0, 6654.248434811644, 187500.0, -187500.02235174447, -187500.02235174447, 187500.0, -187500.02235174447, -187500.02235174447, 187500.0, 0.036000000000000004, -0.028, 1.008, 192.0, 0.0, 0.0, 0.0, 0.0, 0.0, 0.0, 0.0, 0.0, 0.0, 1.6953711873388371E9, 0.0, 2023-09-22 10:26:27.338
150.0, 3636.5617676450934, 187500.0, -187500.02235174447, -187500.02235174447, 187500.0, -187500.02235174447, -187500.02235174447, 187500.0, 0.036000000000000004, -0.028, 1.008, 192.0, 0.0, 0.0, 0.0, 0.0, 0.0, 0.0, 0.0, 0.0, 0.0, 1.6953711873388815E9, 0.0, 2023-09-22 10:26:27.338
151.0, 1069.0615855528815, 187500.0, -187500.02235174447, -187500.02235174447, 187500.0, -187500.02235174447, -187500.02235174447, 187500.0, 0.036000000000000004, -0.028, 1.008, 192.0, 0.0, 0.0, 0.0, 0.0, 0.0, 0.0, 0.0, 0.0, 0.0, 1.6953711873389711E9, 0.0, 2023-09-22 10:26:27.338
152.0, -833.8765303941406, 187500.0, -187500.02235174447, -187500.02235174447, 187500.0, -187500.02235174447, -187500.02235174447, 187500.0, 0.036000000000000004, -0.028, 1.008, 192.0, 0.0, 0.0, 0.0, 0.0, 0.0, 0.0, 0.0, 0.0, 0.0, 1.6953711873390129E9, 0.0, 2023-09-22 10:26:27.339
153.0, 209.27938333504002, 187500.0, -187500.02235174447, -187500.02235174447, 187500.0, -187500.02235174447, -187500.02235174447, 187500.0, 0.036000000000000004, -0.028, 1.008, 192.0, 0.0, 0.0, 0.0, 0.0, 0.0, 0.0, 0.0, 0.0, 0.0, 1.6953711873390553E9, 0.0, 2023-09-22 10:26:27.339
154.0, 3250.189512990655, 187500.0, -187500.02235174447, -187500.02235174447, 187500.0, -187500.02235174447, -187500.02235174447, 187500.0, 0.036000000000000004, -0.028, 1.008, 192.0, 0.0, 0.0, 0.0, 0.0, 0.0, 0.0, 0.0, 0.0, 0.0, 1.6953711873390973E9, 0.0, 2023-09-22 10:26:27.339
155.0, 5853.228968766805, 187500.0, -187500.02235174447, -187500.02235174447, 187500.0, -187500.02235174447, -187500.02235174447, 187500.0, 0.036000000000000004, -0.028, 1.008, 192.0, 0.0, 0.0, 0.0, 0.0, 0.0, 0.0, 0.0, 0.0, 0.0, 1.6953711873391397E9, 0.0, 2023-09-22 10:26:27.339
156.0, 7742.599575829456, 187500.0, -187500.02235174447, -187500.02235174447, 187500.0, -187500.02235174447, -187500.02235174447, 187500.0, 0.036000000000000004, -0.028, 1.008, 192.0, 0.0, 0.0, 0.0, 0.0, 0.0, 0.0, 0.0, 0.0, 0.0, 1.6953711873391817E9, 0.0, 2023-09-22 10:26:27.339
157.0, 6632.6790014122735, 187500.0, -187500.02235174447, -187500.02235174447, 187500.0, -187500.02235174447, -187500.02235174447, 187500.0, 0.036000000000000004, -0.032, 1.006, 192.0, 1.0, 32.0, 255.0, 0.0, 31.0, 112.0, 0.0, 0.0, 0.0, 1.6953711873392236E9, 0.0, 2023-09-22 10:26:27.339
158.0, 3603.123557939954, 187500.0, -187500.02235174447, -187500.02235174447, 187500.0, -187500.02235174447, -187500.02235174447, 187500.0, 0.036000000000000004, -0.032, 1.006, 192.0, 0.0, 0.0, 0.0, 0.0, 0.0, 0.0, 0.0, 0.0, 0.0, 1.695371187339268E9, 0.0, 2023-09-22 10:26:27.339
159.0, 1045.5251986414432, 187500.0, -187500.02235174447, -187500.02235174447, 187500.0, -187500.02235174447, -187500.02235174447, 187500.0, 0.036000000000000004, -0.032, 1.006, 192.0, 0.0, 0.0, 0.0, 0.0, 0.0, 0.0, 0.0, 0.0, 0.0, 1.69537118733931E9, 0.0, 2023-09-22 10:26:27.339
160.0, -867.5829610327436, 187500.0, -187500.02235174447, -187500.02235174447, 187500.0, -187500.02235174447, -187500.02235174447, 187500.0, 0.036000000000000004, -0.032, 1.006, 192.0, 0.0, 0.0, 0.0, 0.0, 0.0, 0.0, 0.0, 0.0, 0.0, 1.6953711873393521E9, 0.0, 2023-09-22 10:26:27.339
161.0, 221.61754627436952, 187500.0, -187500.02235174447, -187500.02235174447, 187500.0, -187500.02235174447, -187500.02235174447, 187500.0, 0.036000000000000004, -0.032, 1.006, 192.0, 0.0, 0.0, 0.0, 0.0, 0.0, 0.0, 0.0, 0.0, 0.0, 1.695371187339394E9, 0.0, 2023-09-22 10:26:27.339
162.0, 3233.9844982605578, 187500.0, -187500.02235174447, -187500.02235174447, 187500.0, -187500.02235174447, -187500.02235174447, 187500.0, 0.036000000000000004, -0.032, 1.006, 192.0, 0.0, 0.0, 0.0, 0.0, 0.0, 0.0, 0.0, 0.0, 0.0, 1.6953711873394356E9, 0.0, 2023-09-22 10:26:27.339
163.0, 5813.040532236163, 187500.0, -187500.02235174447, -187500.02235174447, 187500.0, -187500.02235174447, -187500.02235174447, 187500.0, 0.036000000000000004, -0.032, 1.006, 192.0, 0.0, 0.0, 0.0, 0.0, 0.0, 0.0, 0.0, 0.0, 0.0, 1.6953711873394773E9, 0.0, 2023-09-22 10:26:27.339
164.0, 7738.017468216118, 187500.0, -187500.02235174447, -187500.02235174447, 187500.0, -187500.02235174447, -187500.02235174447, 187500.0, 0.036000000000000004, -0.032, 1.006, 192.0, 0.0, 0.0, 0.0, 0.0, 0.0, 0.0, 0.0, 0.0, 0.0, 1.695371187339517E9, 0.0, 2023-09-22 10:26:27.339
165.0, 6730.803159571071, 187500.0, -187500.02235174447, -187500.02235174447, 187500.0, -187500.02235174447, -187500.02235174447, 187500.0, 0.036000000000000004, -0.032, 1.006, 192.0, 0.0, 0.0, 0.0, 0.0, 0.0, 0.0, 0.0, 0.0, 0.0, 1.6953711873395565E9, 0.0, 2023-09-22 10:26:27.339
166.0, 3718.7044285183465, 187500.0, -187500.02235174447, -187500.02235174447, 187500.0, -187500.02235174447, -187500.02235174447, 187500.0, 0.036000000000000004, -0.032, 1.006, 192.0, 0.0, 0.0, 0.0, 0.0, 0.0, 0.0, 0.0, 0.0, 0.0, 1.695371187339614E9, 0.0, 2023-09-22 10:26:27.339
167.0, 1130.2606618715122, 187500.0, -187500.02235174447, -187500.02235174447, 187500.0, -187500.02235174447, -187500.02235174447, 187500.0, 0.032, -0.034, 1.006, 192.0, 1.0, 0.0, 254.0, 240.0, 31.0, 112.0, 0.0, 0.0, 0.0, 1.6953711873396385E9, 0.0, 2023-09-22 10:26:27.339
168.0, -798.4713671769342, 187500.0, -187500.02235174447, -187500.02235174447, 187500.0, -187500.02235174447, -187500.02235174447, 187500.0, 0.032, -0.034, 1.006, 192.0, 0.0, 0.0, 0.0, 0.0, 0.0, 0.0, 0.0, 0.0, 0.0, 1.6953711873396635E9, 0.0, 2023-09-22 10:26:27.339
169.0, 257.2685786805843, 187500.0, -187500.02235174447, -187500.02235174447, 187500.0, -187500.02235174447, -187500.02235174447, 187500.0, 0.032, -0.034, 1.006, 192.0, 0.0, 0.0, 0.0, 0.0, 0.0, 0.0, 0.0, 0.0, 0.0, 1.6953711873396869E9, 0.0, 2023-09-22 10:26:27.339
170.0, 3305.934763662191, 187500.0, -187500.02235174447, -187500.02235174447, 187500.0, -187500.02235174447, -187500.02235174447, 187500.0, 0.032, -0.034, 1.006, 192.0, 0.0, 0.0, 0.0, 0.0, 0.0, 0.0, 0.0, 0.0, 0.0, 1.6953711873397105E9, 0.0, 2023-09-22 10:26:27.339
171.0, 5854.2795007562045, 187500.0, -187500.02235174447, -187500.02235174447, 187500.0, -187500.02235174447, -187500.02235174447, 187500.0, 0.032, -0.034, 1.006, 192.0, 0.0, 0.0, 0.0, 0.0, 0.0, 0.0, 0.0, 0.0, 0.0, 1.6953711873397343E9, 0.0, 2023-09-22 10:26:27.339
172.0, 7755.004794002151, 187500.0, -187500.02235174447, -187500.02235174447, 187500.0, -187500.02235174447, -187500.02235174447, 187500.0, 0.032, -0.034, 1.006, 192.0, 0.0, 0.0, 0.0, 0.0, 0.0, 0.0, 0.0, 0.0, 0.0, 1.6953711873397577E9, 0.0, 2023-09-22 10:26:27.339
173.0, 6660.395164536854, 187500.0, -187500.02235174447, -187500.02235174447, 187500.0, -187500.02235174447, -187500.02235174447, 187500.0, 0.032, -0.034, 1.006, 192.0, 0.0, 0.0, 0.0, 0.0, 0.0, 0.0, 0.0, 0.0, 0.0, 1.6953711873397815E9, 0.0, 2023-09-22 10:26:27.339
174.0, 3657.885331855456, 187500.0, -187500.02235174447, -187500.02235174447, 187500.0, -187500.02235174447, -187500.02235174447, 187500.0, 0.032, -0.034, 1.006, 192.0, 0.0, 0.0, 0.0, 0.0, 0.0, 0.0, 0.0, 0.0, 0.0, 1.6953711873398058E9, 0.0, 2023-09-22 10:26:27.339
175.0, 1157.5744935958974, 187500.0, -187500.02235174447, -187500.02235174447, 187500.0, -187500.02235174447, -187500.02235174447, 187500.0, 0.032, -0.034, 1.006, 192.0, 0.0, 0.0, 0.0, 0.0, 0.0, 0.0, 0.0, 0.0, 0.0, 1.6953711873398292E9, 0.0, 2023-09-22 10:26:27.339
176.0, -752.5608840657335, 187500.0, -187500.02235174447, -187500.02235174447, 187500.0, -187500.02235174447, -187500.02235174447, 187500.0, 0.032, -0.034, 1.006, 192.0, 0.0, 0.0, 0.0, 0.0, 0.0, 0.0, 0.0, 0.0, 0.0, 1.6953711873398528E9, 0.0, 2023-09-22 10:26:27.339
177.0, 266.0751659959753, 187500.0, -187500.02235174447, -187500.02235174447, 187500.0, -187500.02235174447, -187500.02235174447, 187500.0, 0.036000000000000004, -0.024, 1.004, 192.0, 1.0, 32.0, 255.0, 64.0, 31.0, 96.0, 0.0, 0.0, 0.0, 1.695371187339894E9, 0.0, 2023-09-22 10:26:27.339
178.0, 3272.74242314606, 187500.0, -187500.02235174447, -187500.02235174447, 187500.0, -187500.02235174447, -187500.02235174447, 187500.0, 0.036000000000000004, -0.024, 1.004, 192.0, 0.0, 0.0, 0.0, 0.0, 0.0, 0.0, 0.0, 0.0, 0.0, 1.6953711873399217E9, 0.0, 2023-09-22 10:26:27.339
179.0, 5908.862460716065, 187500.0, -187500.02235174447, -187500.02235174447, 187500.0, -187500.02235174447, -187500.02235174447, 187500.0, 0.036000000000000004, -0.024, 1.004, 192.0, 0.0, 0.0, 0.0, 0.0, 0.0, 0.0, 0.0, 0.0, 0.0, 1.6953711873399456E9, 0.0, 2023-09-22 10:26:27.339
180.0, 7811.800576663087, 187500.0, -187500.02235174447, -187500.02235174447, 187500.0, -187500.02235174447, -187500.02235174447, 187500.0, 0.036000000000000004, -0.024, 1.004, 192.0, 0.0, 0.0, 0.0, 0.0, 0.0, 0.0, 0.0, 0.0, 0.0, 1.6953711873399696E9, 0.0, 2023-09-22 10:26:27.339
181.0, 6741.911976565359, 187500.0, -187500.02235174447, -187500.02235174447, 187500.0, -187500.02235174447, -187500.02235174447, 187500.0, 0.036000000000000004, -0.024, 1.004, 192.0, 0.0, 0.0, 0.0, 0.0, 0.0, 0.0, 0.0, 0.0, 0.0, 1.6953711873400235E9, 0.0, 2023-09-22 10:26:27.340
182.0, 3681.6452362114474, 187500.0, -187500.02235174447, -187500.02235174447, 187500.0, -187500.02235174447, -187500.02235174447, 187500.0, 0.036000000000000004, -0.024, 1.004, 192.0, 0.0, 0.0, 0.0, 0.0, 0.0, 0.0, 0.0, 0.0, 0.0, 1.6953711873400483E9, 0.0, 2023-09-22 10:26:27.340
183.0, 1075.0965565558145, 187500.0, -187500.02235174447, -187500.02235174447, 187500.0, -187500.02235174447, -187500.02235174447, 187500.0, 0.036000000000000004, -0.024, 1.004, 192.0, 0.0, 0.0, 0.0, 0.0, 0.0, 0.0, 0.0, 0.0, 0.0, 1.695371187340072E9, 0.0, 2023-09-22 10:26:27.340
184.0, -820.8231116322413, 187500.0, -187500.02235174447, -187500.02235174447, 187500.0, -187500.02235174447, -187500.02235174447, 187500.0, 0.036000000000000004, -0.024, 1.004, 192.0, 0.0, 0.0, 0.0, 0.0, 0.0, 0.0, 0.0, 0.0, 0.0, 1.6953711873400953E9, 0.0, 2023-09-22 10:26:27.340
185.0, 260.37547115987195, 187500.0, -187500.02235174447, -187500.02235174447, 187500.0, -187500.02235174447, -187500.02235174447, 187500.0, 0.036000000000000004, -0.024, 1.004, 192.0, 0.0, 0.0, 0.0, 0.0, 0.0, 0.0, 0.0, 0.0, 0.0, 1.695371187340119E9, 0.0, 2023-09-22 10:26:27.340
186.0, 3294.781243178993, 187500.0, -187500.02235174447, -187500.02235174447, 187500.0, -187500.02235174447, -187500.02235174447, 187500.0, 0.036000000000000004, -0.024, 1.004, 192.0, 0.0, 0.0, 0.0, 0.0, 0.0, 0.0, 0.0, 0.0, 0.0, 1.6953711873401425E9, 0.0, 2023-09-22 10:26:27.340
187.0, 5886.086033116107, 187500.0, -187500.02235174447, -187500.02235174447, 187500.0, -187500.02235174447, -187500.02235174447, 187500.0, 0.034, -0.02, 0.998, 192.0, 1.0, 16.0, 255.0, 96.0, 31.0, 48.0, 0.0, 0.0, 0.0, 1.695371187340166E9, 0.0, 2023-09-22 10:26:27.340
188.0, 7809.163070817361, 187500.0, -187500.02235174447, -187500.02235174447, 187500.0, -187500.02235174447, -187500.02235174447, 187500.0, 0.034, -0.02, 0.998, 192.0, 0.0, 0.0, 0.0, 0.0, 0.0, 0.0, 0.0, 0.0, 0.0, 1.6953711873401914E9, 0.0, 2023-09-22 10:26:27.340
189.0, 6707.512641848642, 187500.0, -187500.02235174447, -187500.02235174447, 187500.0, -187500.02235174447, -187500.02235174447, 187500.0, 0.034, -0.02, 0.998, 192.0, 0.0, 0.0, 0.0, 0.0, 0.0, 0.0, 0.0, 0.0, 0.0, 1.6953711873402152E9, 0.0, 2023-09-22 10:26:27.340
190.0, 3677.5548669761265, 187500.0, -187500.02235174447, -187500.02235174447, 187500.0, -187500.02235174447, -187500.02235174447, 187500.0, 0.034, -0.02, 0.998, 192.0, 0.0, 0.0, 0.0, 0.0, 0.0, 0.0, 0.0, 0.0, 0.0, 1.6953711873402388E9, 0.0, 2023-09-22 10:26:27.340
191.0, 1117.1625396207023, 187500.0, -187500.02235174447, -187500.02235174447, 187500.0, -187500.02235174447, -187500.02235174447, 187500.0, 0.034, -0.02, 0.998, 192.0, 0.0, 0.0, 0.0, 0.0, 0.0, 0.0, 0.0, 0.0, 0.0, 1.6953711873402624E9, 0.0, 2023-09-22 10:26:27.340
192.0, -809.6695911490431, 187500.0, -187500.02235174447, -187500.02235174447, 187500.0, -187500.02235174447, -187500.02235174447, 187500.0, 0.034, -0.02, 0.998, 192.0, 0.0, 0.0, 0.0, 0.0, 0.0, 0.0, 0.0, 0.0, 0.0, 1.695371187340286E9, 0.0, 2023-09-22 10:26:27.340
193.0, 262.0295002495647, 187500.0, -187500.02235174447, -187500.02235174447, 187500.0, -187500.02235174447, -187500.02235174447, 187500.0, 0.034, -0.02, 0.998, 192.0, 0.0, 0.0, 0.0, 0.0, 0.0, 0.0, 0.0, 0.0, 0.0, 1.6953711873403096E9, 0.0, 2023-09-22 10:26:27.340
194.0, 3309.4439875416742, 187500.0, -187500.02235174447, -187500.02235174447, 187500.0, -187500.02235174447, -187500.02235174447, 187500.0, 0.034, -0.02, 0.998, 192.0, 0.0, 0.0, 0.0, 0.0, 0.0, 0.0, 0.0, 0.0, 0.0, 1.6953711873403332E9, 0.0, 2023-09-22 10:26:27.340
195.0, 5888.634131984011, 187500.0, -187500.02235174447, -187500.02235174447, 187500.0, -187500.02235174447, -187500.02235174447, 187500.0, 0.034, -0.02, 0.998, 192.0, 0.0, 0.0, 0.0, 0.0, 0.0, 0.0, 0.0, 0.0, 0.0, 1.6953711873403566E9, 0.0, 2023-09-22 10:26:27.340
196.0, 7788.8676868519415, 187500.0, -187500.02235174447, -187500.02235174447, 187500.0, -187500.02235174447, -187500.02235174447, 187500.0, 0.036000000000000004, -0.024, 1.004, 192.0, 1.0, 32.0, 255.0, 64.0, 31.0, 96.0, 0.0, 0.0, 0.0, 1.695371187340404E9, 0.0, 2023-09-22 10:26:27.340
197.0, 6682.970426436714, 187500.0, -187500.02235174447, -187500.02235174447, 187500.0, -187500.02235174447, -187500.02235174447, 187500.0, 0.036000000000000004, -0.024, 1.004, 192.0, 0.0, 0.0, 0.0, 0.0, 0.0, 0.0, 0.0, 0.0, 0.0, 1.69537118734043E9, 0.0, 2023-09-22 10:26:27.340
198.0, 3659.5170092006933, 187500.0, -187500.02235174447, -187500.02235174447, 187500.0, -187500.02235174447, -187500.02235174447, 187500.0, 0.036000000000000004, -0.024, 1.004, 192.0, 0.0, 0.0, 0.0, 0.0, 0.0, 0.0, 0.0, 0.0, 0.0, 1.6953711873404539E9, 0.0, 2023-09-22 10:26:27.340
199.0, 1133.6134235398083, 187500.0, -187500.02235174447, -187500.02235174447, 187500.0, -187500.02235174447, -187500.02235174447, 187500.0, 0.036000000000000004, -0.024, 1.004, 192.0, 0.0, 0.0, 0.0, 0.0, 0.0, 0.0, 0.0, 0.0, 0.0, 1.6953711873404777E9, 0.0, 2023-09-22 10:26:27.340
200.0, -790.3129804507471, 187500.0, -187500.02235174447, -187500.02235174447, 187500.0, -187500.02235174447, -187500.02235174447, 187500.0, 0.036000000000000004, -0.024, 1.004, 192.0, 0.0, 0.0, 0.0, 0.0, 0.0, 0.0, 0.0, 0.0, 0.0, 1.6953711873405013E9, 0.0, 2023-09-22 10:26:27.340
201.0, 264.21997120618477, 187500.0, -187500.02235174447, -187500.02235174447, 187500.0, -187500.02235174447, -187500.02235174447, 187500.0, 0.036000000000000004, -0.024, 1.004, 192.0, 0.0, 0.0, 0.0, 0.0, 0.0, 0.0, 0.0, 0.0, 0.0, 1.695371187340525E9, 0.0, 2023-09-22 10:26:27.340
202.0, 3280.6996441721494, 187500.0, -187500.02235174447, -187500.02235174447, 187500.0, -187500.02235174447, -187500.02235174447, 187500.0, 0.036000000000000004, -0.024, 1.004, 192.0, 0.0, 0.0, 0.0, 0.0, 0.0, 0.0, 0.0, 0.0, 0.0, 1.6953711873405483E9, 0.0, 2023-09-22 10:26:27.340
203.0, 5858.056945569151, 187500.0, -187500.02235174447, -187500.02235174447, 187500.0, -187500.02235174447, -187500.02235174447, 187500.0, 0.036000000000000004, -0.024, 1.004, 192.0, 0.0, 0.0, 0.0, 0.0, 0.0, 0.0, 0.0, 0.0, 0.0, 1.6953711873405716E9, 0.0, 2023-09-22 10:26:27.340
204.0, 7795.573210188533, 187500.0, -187500.02235174447, -187500.02235174447, 187500.0, -187500.02235174447, -187500.02235174447, 187500.0, 0.036000000000000004, -0.024, 1.004, 192.0, 0.0, 0.0, 0.0, 0.0, 0.0, 0.0, 0.0, 0.0, 0.0, 1.6953711873405952E9, 0.0, 2023-09-22 10:26:27.340
205.0, 6716.542746608585, 187500.0, -187500.02235174447, -187500.02235174447, 187500.0, -187500.02235174447, -187500.02235174447, 187500.0, 0.036000000000000004, -0.024, 1.004, 192.0, 0.0, 0.0, 0.0, 0.0, 0.0, 0.0, 0.0, 0.0, 0.0, 1.6953711873406188E9, 0.0, 2023-09-22 10:26:27.340
206.0, 3667.340119760051, 187500.0, -187500.02235174447, -187500.02235174447, 187500.0, -187500.02235174447, -187500.02235174447, 187500.0, 0.04, -0.024, 1.002, 192.0, 1.0, 64.0, 255.0, 64.0, 31.0, 80.0, 0.0, 0.0, 0.0, 1.6953711873406427E9, 0.0, 2023-09-22 10:26:27.340
207.0, 1083.3443502598227, 187500.0, -187500.02235174447, -187500.02235174447, 187500.0, -187500.02235174447, -187500.02235174447, 187500.0, 0.04, -0.024, 1.002, 192.0, 0.0, 0.0, 0.0, 0.0, 0.0, 0.0, 0.0, 0.0, 0.0, 1.6953711873406675E9, 0.0, 2023-09-22 10:26:27.340
208.0, -853.8142864482745, 187500.0, -187500.02235174447, -187500.02235174447, 187500.0, -187500.02235174447, -187500.02235174447, 187500.0, 0.04, -0.024, 1.002, 192.0, 0.0, 0.0, 0.0, 0.0, 0.0, 0.0, 0.0, 0.0, 0.0, 1.695371187340691E9, 0.0, 2023-09-22 10:26:27.340
209.0, 208.63118274583613, 187500.0, -187500.02235174447, -187500.02235174447, 187500.0, -187500.02235174447, -187500.02235174447, 187500.0, 0.04, -0.024, 1.002, 192.0, 0.0, 0.0, 0.0, 0.0, 0.0, 0.0, 0.0, 0.0, 0.0, 1.6953711873407145E9, 0.0, 2023-09-22 10:26:27.340
210.0, 3282.55483896194, 187500.0, -187500.02235174447, -187500.02235174447, 187500.0, -187500.02235174447, -187500.02235174447, 187500.0, 0.04, -0.024, 1.002, 192.0, 0.0, 0.0, 0.0, 0.0, 0.0, 0.0, 0.0, 0.0, 0.0, 1.6953711873407378E9, 0.0, 2023-09-22 10:26:27.340
211.0, 5886.086033116107, 187500.0, -187500.02235174447, -187500.02235174447, 187500.0, -187500.02235174447, -187500.02235174447, 187500.0, 0.04, -0.024, 1.002, 192.0, 0.0, 0.0, 0.0, 0.0, 0.0, 0.0, 0.0, 0.0, 0.0, 1.6953711873407843E9, 0.0, 2023-09-22 10:26:27.340
212.0, 7781.625721648422, 187500.0, -187500.02235174447, -187500.02235174447, 187500.0, -187500.02235174447, -187500.02235174447, 187500.0, 0.04, -0.024, 1.002, 192.0, 0.0, 0.0, 0.0, 0.0, 0.0, 0.0, 0.0, 0.0, 0.0, 1.695371187340809E9, 0.0, 2023-09-22 10:26:27.340
213.0, 6660.663385470318, 187500.0, -187500.02235174447, -187500.02235174447, 187500.0, -187500.02235174447, -187500.02235174447, 187500.0, 0.04, -0.024, 1.002, 192.0, 0.0, 0.0, 0.0, 0.0, 0.0, 0.0, 0.0, 0.0, 0.0, 1.6953711873408327E9, 0.0, 2023-09-22 10:26:27.340
214.0, 3642.0379450366436, 187500.0, -187500.02235174447, -187500.02235174447, 187500.0, -187500.02235174447, -187500.02235174447, 187500.0, 0.04, -0.024, 1.002, 192.0, 0.0, 0.0, 0.0, 0.0, 0.0, 0.0, 0.0, 0.0, 0.0, 1.695371187340856E9, 0.0, 2023-09-22 10:26:27.340
215.0, 1103.9973621365264, 187500.0, -187500.02235174447, -187500.02235174447, 187500.0, -187500.02235174447, -187500.02235174447, 187500.0, 0.04, -0.024, 1.002, 192.0, 0.0, 0.0, 0.0, 0.0, 0.0, 0.0, 0.0, 0.0, 0.0, 1.6953711873408992E9, 0.0, 2023-09-22 10:26:27.340
216.0, -829.2944227808026, 187500.0, -187500.02235174447, -187500.02235174447, 187500.0, -187500.02235174447, -187500.02235174447, 187500.0, 0.034, -0.024, 1.0, 192.0, 1.0, 16.0, 255.0, 64.0, 31.0, 64.0, 0.0, 0.0, 0.0, 1.6953711873409462E9, 0.0, 2023-09-22 10:26:27.340
217.0, 211.02281940255398, 187500.0, -187500.02235174447, -187500.02235174447, 187500.0, -187500.02235174447, -187500.02235174447, 187500.0, 0.034, -0.024, 1.0, 192.0, 0.0, 0.0, 0.0, 0.0, 0.0, 0.0, 0.0, 0.0, 0.0, 1.6953711873409913E9, 0.0, 2023-09-22 10:26:27.340
218.0, 3295.831775168392, 187500.0, -187500.02235174447, -187500.02235174447, 187500.0, -187500.02235174447, -187500.02235174447, 187500.0, 0.034, -0.024, 1.0, 192.0, 0.0, 0.0, 0.0, 0.0, 0.0, 0.0, 0.0, 0.0, 0.0, 1.695371187341016E9, 0.0, 2023-09-22 10:26:27.341
219.0, 5912.88577471802, 187500.0, -187500.02235174447, -187500.02235174447, 187500.0, -187500.02235174447, -187500.02235174447, 187500.0, 0.034, -0.024, 1.0, 192.0, 0.0, 0.0, 0.0, 0.0, 0.0, 0.0, 0.0, 0.0, 0.0, 1.69537118734104E9, 0.0, 2023-09-22 10:26:27.341
220.0, 7812.292315041103, 187500.0, -187500.02235174447, -187500.02235174447, 187500.0, -187500.02235174447, -187500.02235174447, 187500.0, 0.034, -0.024, 1.0, 192.0, 0.0, 0.0, 0.0, 0.0, 0.0, 0.0, 0.0, 0.0, 0.0, 1.6953711873410635E9, 0.0, 2023-09-22 10:26:27.341
221.0, 6721.661296088851, 187500.0, -187500.02235174447, -187500.02235174447, 187500.0, -187500.02235174447, -187500.02235174447, 187500.0, 0.034, -0.024, 1.0, 192.0, 0.0, 0.0, 0.0, 0.0, 0.0, 0.0, 0.0, 0.0, 0.0, 1.6953711873410869E9, 0.0, 2023-09-22 10:26:27.341
222.0, 3681.8687536560005, 187500.0, -187500.02235174447, -187500.02235174447, 187500.0, -187500.02235174447, -187500.02235174447, 187500.0, 0.034, -0.024, 1.0, 192.0, 0.0, 0.0, 0.0, 0.0, 0.0, 0.0, 0.0, 0.0, 0.0, 1.6953711873411105E9, 0.0, 2023-09-22 10:26:27.341
223.0, 1124.560967035409, 187500.0, -187500.02235174447, -187500.02235174447, 187500.0, -187500.02235174447, -187500.02235174447, 187500.0, 0.034, -0.024, 1.0, 192.0, 0.0, 0.0, 0.0, 0.0, 0.0, 0.0, 0.0, 0.0, 0.0, 1.695371187341134E9, 0.0, 2023-09-22 10:26:27.341
224.0, -781.4393379019903, 187500.0, -187500.02235174447, -187500.02235174447, 187500.0, -187500.02235174447, -187500.02235174447, 187500.0, 0.034, -0.024, 1.0, 192.0, 0.0, 0.0, 0.0, 0.0, 0.0, 0.0, 0.0, 0.0, 0.0, 1.6953711873411574E9, 0.0, 2023-09-22 10:26:27.341
225.0, 254.60872109040275, 187500.0, -187500.02235174447, -187500.02235174447, 187500.0, -187500.02235174447, -187500.02235174447, 187500.0, 0.034, -0.024, 1.0, 192.0, 0.0, 0.0, 0.0, 0.0, 0.0, 0.0, 0.0, 0.0, 0.0, 1.6953711873411808E9, 0.0, 2023-09-22 10:26:27.341
226.0, 3301.0173798820238, 187500.0, -187500.02235174447, -187500.02235174447, 187500.0, -187500.02235174447, -187500.02235174447, 187500.0, 0.038, -0.028, 1.0, 192.0, 1.0, 48.0, 255.0, 32.0, 31.0, 64.0, 0.0, 0.0, 0.0, 1.6953711873412352E9, 0.0, 2023-09-22 10:26:27.341
227.0, 5870.328053275115, 187500.0, -187500.02235174447, -187500.02235174447, 187500.0, -187500.02235174447, -187500.02235174447, 187500.0, 0.038, -0.028, 1.0, 192.0, 0.0, 0.0, 0.0, 0.0, 0.0, 0.0, 0.0, 0.0, 0.0, 1.6953711873412616E9, 0.0, 2023-09-22 10:26:27.341
228.0, 7772.416802932836, 187500.0, -187500.02235174447, -187500.02235174447, 187500.0, -187500.02235174447, -187500.02235174447, 187500.0, 0.038, -0.028, 1.0, 192.0, 0.0, 0.0, 0.0, 0.0, 0.0, 0.0, 0.0, 0.0, 0.0, 1.6953711873412852E9, 0.0, 2023-09-22 10:26:27.341
229.0, 6709.591354082984, 187500.0, -187500.02235174447, -187500.02235174447, 187500.0, -187500.02235174447, -187500.02235174447, 187500.0, 0.038, -0.028, 1.0, 192.0, 0.0, 0.0, 0.0, 0.0, 0.0, 0.0, 0.0, 0.0, 0.0, 1.6953711873413084E9, 0.0, 2023-09-22 10:26:27.341
230.0, 3703.7511114777462, 187500.0, -187500.02235174447, -187500.02235174447, 187500.0, -187500.02235174447, -187500.02235174447, 187500.0, 0.038, -0.028, 1.0, 192.0, 0.0, 0.0, 0.0, 0.0, 0.0, 0.0, 0.0, 0.0, 0.0, 1.695371187341332E9, 0.0, 2023-09-22 10:26:27.341
231.0, 1158.0438802294589, 187500.0, -187500.02235174447, -187500.02235174447, 187500.0, -187500.02235174447, -187500.02235174447, 187500.0, 0.038, -0.028, 1.0, 192.0, 0.0, 0.0, 0.0, 0.0, 0.0, 0.0, 0.0, 0.0, 0.0, 1.6953711873413556E9, 0.0, 2023-09-22 10:26:27.341
232.0, -770.2634656743367, 187500.0, -187500.02235174447, -187500.02235174447, 187500.0, -187500.02235174447, -187500.02235174447, 187500.0, 0.038, -0.028, 1.0, 192.0, 0.0, 0.0, 0.0, 0.0, 0.0, 0.0, 0.0, 0.0, 0.0, 1.6953711873413794E9, 0.0, 2023-09-22 10:26:27.341
233.0, 255.0557559795089, 187500.0, -187500.02235174447, -187500.02235174447, 187500.0, -187500.02235174447, -187500.02235174447, 187500.0, 0.038, -0.028, 1.0, 192.0, 0.0, 0.0, 0.0, 0.0, 0.0, 0.0, 0.0, 0.0, 0.0, 1.6953711873414028E9, 0.0, 2023-09-22 10:26:27.341
234.0, 3319.614031268839, 187500.0, -187500.02235174447, -187500.02235174447, 187500.0, -187500.02235174447, -187500.02235174447, 187500.0, 0.038, -0.028, 1.0, 192.0, 0.0, 0.0, 0.0, 0.0, 0.0, 0.0, 0.0, 0.0, 0.0, 1.695371187341427E9, 0.0, 2023-09-22 10:26:27.341
235.0, 5925.514510335268, 187500.0, -187500.02235174447, -187500.02235174447, 187500.0, -187500.02235174447, -187500.02235174447, 187500.0, 0.038, -0.028, 1.0, 192.0, 0.0, 0.0, 0.0, 0.0, 0.0, 0.0, 0.0, 0.0, 0.0, 1.6953711873414505E9, 0.0, 2023-09-22 10:26:27.341
236.0, 7830.285469327626, 187500.0, -187500.02235174447, -187500.02235174447, 187500.0, -187500.02235174447, -187500.02235174447, 187500.0, 0.034, -0.026000000000000002, 1.0, 192.0, 1.0, 16.0, 255.0, 48.0, 31.0, 64.0, 0.0, 0.0, 0.0, 1.695371187341474E9, 0.0, 2023-09-22 10:26:27.341
237.0, 6703.578734824507, 187500.0, -187500.02235174447, -187500.02235174447, 187500.0, -187500.02235174447, -187500.02235174447, 187500.0, 0.034, -0.026000000000000002, 1.0, 192.0, 0.0, 0.0, 0.0, 0.0, 0.0, 0.0, 0.0, 0.0, 0.0, 1.6953711873414989E9, 0.0, 2023-09-22 10:26:27.341
238.0, 3682.047567611643, 187500.0, -187500.02235174447, -187500.02235174447, 187500.0, -187500.02235174447, -187500.02235174447, 187500.0, 0.034, -0.026000000000000002, 1.0, 192.0, 0.0, 0.0, 0.0, 0.0, 0.0, 0.0, 0.0, 0.0, 0.0, 1.6953711873415225E9, 0.0, 2023-09-22 10:26:27.341
239.0, 1141.3471271213446, 187500.0, -187500.02235174447, -187500.02235174447, 187500.0, -187500.02235174447, -187500.02235174447, 187500.0, 0.034, -0.026000000000000002, 1.0, 192.0, 0.0, 0.0, 0.0, 0.0, 0.0, 0.0, 0.0, 0.0, 0.0, 1.695371187341546E9, 0.0, 2023-09-22 10:26:27.341
240.0, -764.9437504939737, 187500.0, -187500.02235174447, -187500.02235174447, 187500.0, -187500.02235174447, -187500.02235174447, 187500.0, 0.034, -0.026000000000000002, 1.0, 192.0, 0.0, 0.0, 0.0, 0.0, 0.0, 0.0, 0.0, 0.0, 0.0, 1.6953711873415697E9, 0.0, 2023-09-22 10:26:27.341
241.0, 254.92164551277705, 187500.0, -187500.02235174447, -187500.02235174447, 187500.0, -187500.02235174447, -187500.02235174447, 187500.0, 0.034, -0.026000000000000002, 1.0, 192.0, 0.0, 0.0, 0.0, 0.0, 0.0, 0.0, 0.0, 0.0, 0.0, 1.6953711878176987E9, 0.0, 2023-09-22 10:26:27.817
242.0, 3312.5061765320515, 187500.0, -187500.02235174447, -187500.02235174447, 187500.0, -187500.02235174447, -187500.02235174447, 187500.0, 0.034, -0.026000000000000002, 1.0, 192.0, 0.0, 0.0, 0.0, 0.0, 0.0, 0.0, 0.0, 0.0, 0.0, 1.695371187818233E9, 0.0, 2023-09-22 10:26:27.818
243.0, 5925.290992890715, 187500.0, -187500.02235174447, -187500.02235174447, 187500.0, -187500.02235174447, -187500.02235174447, 187500.0, 0.034, -0.026000000000000002, 1.0, 192.0, 0.0, 0.0, 0.0, 0.0, 0.0, 0.0, 0.0, 0.0, 0.0, 1.6953711878182917E9, 0.0, 2023-09-22 10:26:27.818
244.0, 7826.5974314925, 187500.0, -187500.02235174447, -187500.02235174447, 187500.0, -187500.02235174447, -187500.02235174447, 187500.0, 0.034, -0.026000000000000002, 1.0, 192.0, 0.0, 0.0, 0.0, 0.0, 0.0, 0.0, 0.0, 0.0, 0.0, 1.6953711878183467E9, 0.0, 2023-09-22 10:26:27.818
245.0, 6716.542746608585, 187500.0, -187500.02235174447, -187500.02235174447, 187500.0, -187500.02235174447, -187500.02235174447, 187500.0, 0.034, -0.026000000000000002, 1.0, 192.0, 0.0, 0.0, 0.0, 0.0, 0.0, 0.0, 0.0, 0.0, 0.0, 1.695371187818401E9, 0.0, 2023-09-22 10:26:27.818
246.0, 3670.7375849172577, 187500.0, -187500.02235174447, -187500.02235174447, 187500.0, -187500.02235174447, -187500.02235174447, 187500.0, 0.034, -0.028, 1.006, 192.0, 1.0, 16.0, 255.0, 32.0, 31.0, 112.0, 0.0, 0.0, 0.0, 1.6953711878184483E9, 0.0, 2023-09-22 10:26:27.818
247.0, 1143.5375980779647, 187500.0, -187500.02235174447, -187500.02235174447, 187500.0, -187500.02235174447, -187500.02235174447, 187500.0, 0.034, -0.028, 1.006, 192.0, 0.0, 0.0, 0.0, 0.0, 0.0, 0.0, 0.0, 0.0, 0.0, 1.695371187818496E9, 0.0, 2023-09-22 10:26:27.818
248.0, -790.1341664951046, 187500.0, -187500.02235174447, -187500.02235174447, 187500.0, -187500.02235174447, -187500.02235174447, 187500.0, 0.034, -0.028, 1.006, 192.0, 0.0, 0.0, 0.0, 0.0, 0.0, 0.0, 0.0, 0.0, 0.0, 1.6953711878185384E9, 0.0, 2023-09-22 10:26:27.818
249.0, 321.2616230561284, 187500.0, -187500.02235174447, -187500.02235174447, 187500.0, -187500.02235174447, -187500.02235174447, 187500.0, 0.034, -0.028, 1.006, 192.0, 0.0, 0.0, 0.0, 0.0, 0.0, 0.0, 0.0, 0.0, 0.0, 1.695371187818581E9, 0.0, 2023-09-22 10:26:27.818
250.0, 3345.229130414621, 187500.0, -187500.02235174447, -187500.02235174447, 187500.0, -187500.02235174447, -187500.02235174447, 187500.0, 0.034, -0.028, 1.006, 192.0, 0.0, 0.0, 0.0, 0.0, 0.0, 0.0, 0.0, 0.0, 0.0, 1.6953711878186312E9, 0.0, 2023-09-22 10:26:27.818
251.0, 5845.852893096554, 187500.0, -187500.02235174447, -187500.02235174447, 187500.0, -187500.02235174447, -187500.02235174447, 187500.0, 0.034, -0.028, 1.006, 192.0, 0.0, 0.0, 0.0, 0.0, 0.0, 0.0, 0.0, 0.0, 0.0, 1.6953711878186767E9, 0.0, 2023-09-22 10:26:27.818
252.0, 7755.6306428469, 187500.0, -187500.02235174447, -187500.02235174447, 187500.0, -187500.02235174447, -187500.02235174447, 187500.0, 0.034, -0.028, 1.006, 192.0, 0.0, 0.0, 0.0, 0.0, 0.0, 0.0, 0.0, 0.0, 0.0, 1.6953711878187227E9, 0.0, 2023-09-22 10:26:27.818
253.0, 6697.879039988404, 187500.0, -187500.02235174447, -187500.02235174447, 187500.0, -187500.02235174447, -187500.02235174447, 187500.0, 0.034, -0.028, 1.006, 192.0, 0.0, 0.0, 0.0, 0.0, 0.0, 0.0, 0.0, 0.0, 0.0, 1.6953711878187833E9, 0.0, 2023-09-22 10:26:27.818
254.0, 3684.72977694628, 187500.0, -187500.02235174447, -187500.02235174447, 187500.0, -187500.02235174447, -187500.02235174447, 187500.0, 0.034, -0.028, 1.006, 192.0, 0.0, 0.0, 0.0, 0.0, 0.0, 0.0, 0.0, 0.0, 0.0, 1.6953711878188295E9, 0.0, 2023-09-22 10:26:27.818
255.0, 1129.2101298821128, 187500.0, -187500.02235174447, -187500.02235174447, 187500.0, -187500.02235174447, -187500.02235174447, 187500.0, 0.034, -0.028, 1.006, 192.0, 0.0, 0.0, 0.0, 0.0, 0.0, 0.0, 0.0, 0.0, 0.0, 1.6953711878188715E9, 0.0, 2023-09-22 10:26:27.818
0.0, -789.9777042839175, 187500.0, -187500.02235174447, -187500.02235174447, 187500.0, -187500.02235174447, -187500.02235174447, 187500.0, 0.036000000000000004, -0.03, 1.004, 192.0, 1.0, 32.0, 255.0, 16.0, 31.0, 96.0, 0.0, 0.0, 0.0, 1.6953711878189127E9, 0.0, 2023-09-22 10:26:27.818
1.0, 258.38616590334965, 187500.0, -187500.02235174447, -187500.02235174447, 187500.0, -187500.02235174447, -187500.02235174447, 187500.0, 0.036000000000000004, -0.03, 1.004, 192.0, 0.0, 0.0, 0.0, 0.0, 0.0, 0.0, 0.0, 0.0, 0.0, 1.695371187819023E9, 0.0, 2023-09-22 10:26:27.819
2.0, 3295.1165193458223, 187500.0, -187500.02235174447, -187500.02235174447, 187500.0, -187500.02235174447, -187500.02235174447, 187500.0, 0.036000000000000004, -0.03, 1.004, 192.0, 0.0, 0.0, 0.0, 0.0, 0.0, 0.0, 0.0, 0.0, 0.0, 1.6953711878190684E9, 0.0, 2023-09-22 10:26:27.819
3.0, 5883.672044714934, 187500.0, -187500.02235174447, -187500.02235174447, 187500.0, -187500.02235174447, -187500.02235174447, 187500.0, 0.036000000000000004, -0.03, 1.004, 192.0, 0.0, 0.0, 0.0, 0.0, 0.0, 0.0, 0.0, 0.0, 0.0, 1.6953711878191123E9, 0.0, 2023-09-22 10:26:27.819
4.0, 7816.717960443254, 187500.0, -187500.02235174447, -187500.02235174447, 187500.0, -187500.02235174447, -187500.02235174447, 187500.0, 0.036000000000000004, -0.03, 1.004, 192.0, 0.0, 0.0, 0.0, 0.0, 0.0, 0.0, 0.0, 0.0, 0.0, 1.6953711878191533E9, 0.0, 2023-09-22 10:26:27.819
5.0, 6695.42034809832, 187500.0, -187500.02235174447, -187500.02235174447, 187500.0, -187500.02235174447, -187500.02235174447, 187500.0, 0.036000000000000004, -0.03, 1.004, 192.0, 0.0, 0.0, 0.0, 0.0, 0.0, 0.0, 0.0, 0.0, 0.0, 1.6953711878191955E9, 0.0, 2023-09-22 10:26:27.819
6.0, 3639.109866512998, 187500.0, -187500.02235174447, -187500.02235174447, 187500.0, -187500.02235174447, -187500.02235174447, 187500.0, 0.036000000000000004, -0.03, 1.004, 192.0, 0.0, 0.0, 0.0, 0.0, 0.0, 0.0, 0.0, 0.0, 0.0, 1.6953711878192403E9, 0.0, 2023-09-22 10:26:27.819
7.0, 1095.3919405212332, 187500.0, -187500.02235174447, -187500.02235174447, 187500.0, -187500.02235174447, -187500.02235174447, 187500.0, 0.036000000000000004, -0.03, 1.004, 192.0, 0.0, 0.0, 0.0, 0.0, 0.0, 0.0, 0.0, 0.0, 0.0, 1.6953711878192835E9, 0.0, 2023-09-22 10:26:27.819
8.0, -816.1068935521715, 187500.0, -187500.02235174447, -187500.02235174447, 187500.0, -187500.02235174447, -187500.02235174447, 187500.0, 0.036000000000000004, -0.03, 1.004, 192.0, 0.0, 0.0, 0.0, 0.0, 0.0, 0.0, 0.0, 0.0, 0.0, 1.6953711878193257E9, 0.0, 2023-09-22 10:26:27.819
9.0, 275.88758181185506, 187500.0, -187500.02235174447, -187500.02235174447, 187500.0, -187500.02235174447, -187500.02235174447, 187500.0, 0.036000000000000004, -0.03, 1.004, 192.0, 0.0, 0.0, 0.0, 0.0, 0.0, 0.0, 0.0, 0.0, 0.0, 1.6953711878193684E9, 0.0, 2023-09-22 10:26:27.819
10.0, 3305.554784006451, 187500.0, -187500.02235174447, -187500.02235174447, 187500.0, -187500.02235174447, -187500.02235174447, 187500.0, 0.036000000000000004, -0.026000000000000002, 1.006, 192.0, 1.0, 32.0, 255.0, 48.0, 31.0, 112.0, 0.0, 0.0, 0.0, 1.69537118781941E9, 0.0, 2023-09-22 10:26:27.819
11.0, 5860.5603409481455, 187500.0, -187500.02235174447, -187500.02235174447, 187500.0, -187500.02235174447, -187500.02235174447, 187500.0, 0.036000000000000004, -0.026000000000000002, 1.006, 192.0, 0.0, 0.0, 0.0, 0.0, 0.0, 0.0, 0.0, 0.0, 0.0, 1.6953711878194554E9, 0.0, 2023-09-22 10:26:27.819
12.0, 7770.293387209581, 187500.0, -187500.02235174447, -187500.02235174447, 187500.0, -187500.02235174447, -187500.02235174447, 187500.0, 0.036000000000000004, -0.026000000000000002, 1.006, 192.0, 0.0, 0.0, 0.0, 0.0, 0.0, 0.0, 0.0, 0.0, 0.0, 1.695371187819497E9, 0.0, 2023-09-22 10:26:27.819
13.0, 6698.7731097666165, 187500.0, -187500.02235174447, -187500.02235174447, 187500.0, -187500.02235174447, -187500.02235174447, 187500.0, 0.036000000000000004, -0.026000000000000002, 1.006, 192.0, 0.0, 0.0, 0.0, 0.0, 0.0, 0.0, 0.0, 0.0, 0.0, 1.6953711878195384E9, 0.0, 2023-09-22 10:26:27.819
14.0, 3715.2846116166847, 187500.0, -187500.02235174447, -187500.02235174447, 187500.0, -187500.02235174447, -187500.02235174447, 187500.0, 0.036000000000000004, -0.026000000000000002, 1.006, 192.0, 0.0, 0.0, 0.0, 0.0, 0.0, 0.0, 0.0, 0.0, 0.0, 1.6953711878195815E9, 0.0, 2023-09-22 10:26:27.819
15.0, 1119.7329902330625, 187500.0, -187500.02235174447, -187500.02235174447, 187500.0, -187500.02235174447, -187500.02235174447, 187500.0, 0.036000000000000004, -0.026000000000000002, 1.006, 192.0, 0.0, 0.0, 0.0, 0.0, 0.0, 0.0, 0.0, 0.0, 0.0, 1.6953711878196228E9, 0.0, 2023-09-22 10:26:27.819
16.0, -830.3449547702021, 187500.0, -187500.02235174447, -187500.02235174447, 187500.0, -187500.02235174447, -187500.02235174447, 187500.0, 0.036000000000000004, -0.026000000000000002, 1.006, 192.0, 0.0, 0.0, 0.0, 0.0, 0.0, 0.0, 0.0, 0.0, 0.0, 1.695371187819718E9, 0.0, 2023-09-22 10:26:27.819
17.0, 240.8623982503889, 187500.0, -187500.02235174447, -187500.02235174447, 187500.0, -187500.02235174447, -187500.02235174447, 187500.0, 0.036000000000000004, -0.026000000000000002, 1.006, 192.0, 0.0, 0.0, 0.0, 0.0, 0.0, 0.0, 0.0, 0.0, 0.0, 1.6953711878197603E9, 0.0, 2023-09-22 10:26:27.819
18.0, 3286.8463738973587, 187500.0, -187500.02235174447, -187500.02235174447, 187500.0, -187500.02235174447, -187500.02235174447, 187500.0, 0.036000000000000004, -0.026000000000000002, 1.006, 192.0, 0.0, 0.0, 0.0, 0.0, 0.0, 0.0, 0.0, 0.0, 0.0, 1.695371187819801E9, 0.0, 2023-09-22 10:26:27.819
19.0, 5843.215387250828, 187500.0, -187500.02235174447, -187500.02235174447, 187500.0, -187500.02235174447, -187500.02235174447, 187500.0, 0.036000000000000004, -0.026000000000000002, 1.006, 192.0, 0.0, 0.0, 0.0, 0.0, 0.0, 0.0, 0.0, 0.0, 0.0, 1.6953711878198464E9, 0.0, 2023-09-22 10:26:27.819
20.0, 7740.811436273031, 187500.0, -187500.02235174447, -187500.02235174447, 187500.0, -187500.02235174447, -187500.02235174447, 187500.0, 0.038, -0.028, 1.008, 192.0, 1.0, 48.0, 255.0, 32.0, 31.0, 128.0, 0.0, 0.0, 0.0, 1.6953711878198917E9, 0.0, 2023-09-22 10:26:27.819
21.0, 6671.056946642036, 187500.0, -187500.02235174447, -187500.02235174447, 187500.0, -187500.02235174447, -187500.02235174447, 187500.0, 0.038, -0.028, 1.008, 192.0, 0.0, 0.0, 0.0, 0.0, 0.0, 0.0, 0.0, 0.0, 0.0, 1.6953711878199403E9, 0.0, 2023-09-22 10:26:27.819
22.0, 3661.796887135135, 187500.0, -187500.02235174447, -187500.02235174447, 187500.0, -187500.02235174447, -187500.02235174447, 187500.0, 0.038, -0.028, 1.008, 192.0, 0.0, 0.0, 0.0, 0.0, 0.0, 0.0, 0.0, 0.0, 0.0, 1.695371187819988E9, 0.0, 2023-09-22 10:26:27.819
23.0, 1138.7766765089843, 187500.0, -187500.02235174447, -187500.02235174447, 187500.0, -187500.02235174447, -187500.02235174447, 187500.0, 0.038, -0.028, 1.008, 192.0, 0.0, 0.0, 0.0, 0.0, 0.0, 0.0, 0.0, 0.0, 0.0, 1.695371187820032E9, 0.0, 2023-09-22 10:26:27.820
24.0, -801.6006114006772, 187500.0, -187500.02235174447, -187500.02235174447, 187500.0, -187500.02235174447, -187500.02235174447, 187500.0, 0.038, -0.028, 1.008, 192.0, 0.0, 0.0, 0.0, 0.0, 0.0, 0.0, 0.0, 0.0, 0.0, 1.695371187820076E9, 0.0, 2023-09-22 10:26:27.820
25.0, 234.42509584726048, 187500.0, -187500.02235174447, -187500.02235174447, 187500.0, -187500.02235174447, -187500.02235174447, 187500.0, 0.038, -0.028, 1.008, 192.0, 0.0, 0.0, 0.0, 0.0, 0.0, 0.0, 0.0, 0.0, 0.0, 1.6953711878201194E9, 0.0, 2023-09-22 10:26:27.820
26.0, 3286.354635519342, 187500.0, -187500.02235174447, -187500.02235174447, 187500.0, -187500.02235174447, -187500.02235174447, 187500.0, 0.038, -0.028, 1.008, 192.0, 0.0, 0.0, 0.0, 0.0, 0.0, 0.0, 0.0, 0.0, 0.0, 1.6953711878201632E9, 0.0, 2023-09-22 10:26:27.820
27.0, 5834.229985979794, 187500.0, -187500.02235174447, -187500.02235174447, 187500.0, -187500.02235174447, -187500.02235174447, 187500.0, 0.038, -0.028, 1.008, 192.0, 0.0, 0.0, 0.0, 0.0, 0.0, 0.0, 0.0, 0.0, 0.0, 1.695371187820207E9, 0.0, 2023-09-22 10:26:27.820
28.0, 7779.68111988081, 187500.0, -187500.02235174447, -187500.02235174447, 187500.0, -187500.02235174447, -187500.02235174447, 187500.0, 0.038, -0.028, 1.008, 192.0, 0.0, 0.0, 0.0, 0.0, 0.0, 0.0, 0.0, 0.0, 0.0, 1.695371187820251E9, 0.0, 2023-09-22 10:26:27.820
29.0, 6746.9634708122585, 187500.0, -187500.02235174447, -187500.02235174447, 187500.0, -187500.02235174447, -187500.02235174447, 187500.0, 0.038, -0.028, 1.008, 192.0, 0.0, 0.0, 0.0, 0.0, 0.0, 0.0, 0.0, 0.0, 0.0, 1.6953711878202944E9, 0.0, 2023-09-22 10:26:27.820
30.0, 3689.3118845596177, 187500.0, -187500.02235174447, -187500.02235174447, 187500.0, -187500.02235174447, -187500.02235174447, 187500.0, 0.04, -0.024, 1.006, 192.0, 1.0, 64.0, 255.0, 64.0, 31.0, 112.0, 0.0, 0.0, 0.0, 1.695371187820341E9, 0.0, 2023-09-22 10:26:27.820
31.0, 1091.5697922193758, 187500.0, -187500.02235174447, -187500.02235174447, 187500.0, -187500.02235174447, -187500.02235174447, 187500.0, 0.04, -0.024, 1.006, 192.0, 0.0, 0.0, 0.0, 0.0, 0.0, 0.0, 0.0, 0.0, 0.0, 1.6953711878204546E9, 0.0, 2023-09-22 10:26:27.820
32.0, -834.7929519168082, 187500.0, -187500.02235174447, -187500.02235174447, 187500.0, -187500.02235174447, -187500.02235174447, 187500.0, 0.04, -0.024, 1.006, 192.0, 0.0, 0.0, 0.0, 0.0, 0.0, 0.0, 0.0, 0.0, 0.0, 1.6953711878204994E9, 0.0, 2023-09-22 10:26:27.820
33.0, 248.79726753202291, 187500.0, -187500.02235174447, -187500.02235174447, 187500.0, -187500.02235174447, -187500.02235174447, 187500.0, 0.04, -0.024, 1.006, 192.0, 0.0, 0.0, 0.0, 0.0, 0.0, 0.0, 0.0, 0.0, 0.0, 1.6953711878205416E9, 0.0, 2023-09-22 10:26:27.820
34.0, 3318.8540719573584, 187500.0, -187500.02235174447, -187500.02235174447, 187500.0, -187500.02235174447, -187500.02235174447, 187500.0, 0.04, -0.024, 1.006, 192.0, 0.0, 0.0, 0.0, 0.0, 0.0, 0.0, 0.0, 0.0, 0.0, 1.695371187820584E9, 0.0, 2023-09-22 10:26:27.820
35.0, 5886.577771494123, 187500.0, -187500.02235174447, -187500.02235174447, 187500.0, -187500.02235174447, -187500.02235174447, 187500.0, 0.04, -0.024, 1.006, 192.0, 0.0, 0.0, 0.0, 0.0, 0.0, 0.0, 0.0, 0.0, 0.0, 1.6953711878206284E9, 0.0, 2023-09-22 10:26:27.820
36.0, 7793.785070632109, 187500.0, -187500.02235174447, -187500.02235174447, 187500.0, -187500.02235174447, -187500.02235174447, 187500.0, 0.04, -0.024, 1.006, 192.0, 0.0, 0.0, 0.0, 0.0, 0.0, 0.0, 0.0, 0.0, 0.0, 1.695371187820673E9, 0.0, 2023-09-22 10:26:27.820
37.0, 6689.072452673013, 187500.0, -187500.02235174447, -187500.02235174447, 187500.0, -187500.02235174447, -187500.02235174447, 187500.0, 0.04, -0.024, 1.006, 192.0, 0.0, 0.0, 0.0, 0.0, 0.0, 0.0, 0.0, 0.0, 0.0, 1.695371187820716E9, 0.0, 2023-09-22 10:26:27.820
38.0, 3650.5763114185706, 187500.0, -187500.02235174447, -187500.02235174447, 187500.0, -187500.02235174447, -187500.02235174447, 187500.0, 0.04, -0.024, 1.006, 192.0, 0.0, 0.0, 0.0, 0.0, 0.0, 0.0, 0.0, 0.0, 0.0, 1.695371187820754E9, 0.0, 2023-09-22 10:26:27.820
39.0, 1107.3277720603671, 187500.0, -187500.02235174447, -187500.02235174447, 187500.0, -187500.02235174447, -187500.02235174447, 187500.0, 0.04, -0.024, 1.006, 192.0, 0.0, 0.0, 0.0, 0.0, 0.0, 0.0, 0.0, 0.0, 0.0, 1.6953711878207912E9, 0.0, 2023-09-22 10:26:27.820
40.0, -816.3751144856352, 187500.0, -187500.02235174447, -187500.02235174447, 187500.0, -187500.02235174447, -187500.02235174447, 187500.0, 0.038, -0.026000000000000002, 1.0, 192.0, 1.0, 48.0, 255.0, 48.0, 31.0, 64.0, 0.0, 0.0, 0.0, 1.6953711878208292E9, 0.0, 2023-09-22 10:26:27.820
41.0, 250.80892453300055, 187500.0, -187500.02235174447, -187500.02235174447, 187500.0, -187500.02235174447, -187500.02235174447, 187500.0, 0.038, -0.026000000000000002, 1.0, 192.0, 0.0, 0.0, 0.0, 0.0, 0.0, 0.0, 0.0, 0.0, 0.0, 1.6953711878208754E9, 0.0, 2023-09-22 10:26:27.820
42.0, 3291.4284815106967, 187500.0, -187500.02235174447, -187500.02235174447, 187500.0, -187500.02235174447, -187500.02235174447, 187500.0, 0.038, -0.026000000000000002, 1.0, 192.0, 0.0, 0.0, 0.0, 0.0, 0.0, 0.0, 0.0, 0.0, 0.0, 1.6953711878209305E9, 0.0, 2023-09-22 10:26:27.820
43.0, 5902.000475168285, 187500.0, -187500.02235174447, -187500.02235174447, 187500.0, -187500.02235174447, -187500.02235174447, 187500.0, 0.038, -0.026000000000000002, 1.0, 192.0, 0.0, 0.0, 0.0, 0.0, 0.0, 0.0, 0.0, 0.0, 0.0, 1.695371187820972E9, 0.0, 2023-09-22 10:26:27.820
44.0, 7844.523530545656, 187500.0, -187500.02235174447, -187500.02235174447, 187500.0, -187500.02235174447, -187500.02235174447, 187500.0, 0.038, -0.026000000000000002, 1.0, 192.0, 0.0, 0.0, 0.0, 0.0, 0.0, 0.0, 0.0, 0.0, 0.0, 1.6953711878210137E9, 0.0, 2023-09-22 10:26:27.821
45.0, 6674.074432143501, 187500.0, -187500.02235174447, -187500.02235174447, 187500.0, -187500.02235174447, -187500.02235174447, 187500.0, 0.038, -0.026000000000000002, 1.0, 192.0, 0.0, 0.0, 0.0, 0.0, 0.0, 0.0, 0.0, 0.0, 0.0, 1.6953711878210535E9, 0.0, 2023-09-22 10:26:27.821
46.0, 3618.434502891839, 187500.0, -187500.02235174447, -187500.02235174447, 187500.0, -187500.02235174447, -187500.02235174447, 187500.0, 0.038, -0.026000000000000002, 1.0, 192.0, 0.0, 0.0, 0.0, 0.0, 0.0, 0.0, 0.0, 0.0, 0.0, 1.6953711878211672E9, 0.0, 2023-09-22 10:26:27.821
47.0, 1051.7166318555633, 187500.0, -187500.02235174447, -187500.02235174447, 187500.0, -187500.02235174447, -187500.02235174447, 187500.0, 0.038, -0.026000000000000002, 1.0, 192.0, 0.0, 0.0, 0.0, 0.0, 0.0, 0.0, 0.0, 0.0, 0.0, 1.6953711878212104E9, 0.0, 2023-09-22 10:26:27.821
48.0, -835.6870216950205, 187500.0, -187500.02235174447, -187500.02235174447, 187500.0, -187500.02235174447, -187500.02235174447, 187500.0, 0.038, -0.026000000000000002, 1.0, 192.0, 0.0, 0.0, 0.0, 0.0, 0.0, 0.0, 0.0, 0.0, 0.0, 1.695371187821254E9, 0.0, 2023-09-22 10:26:27.821
49.0, 203.13265360983058, 187500.0, -187500.02235174447, -187500.02235174447, 187500.0, -187500.02235174447, -187500.02235174447, 187500.0, 0.038, -0.026000000000000002, 1.0, 192.0, 0.0, 0.0, 0.0, 0.0, 0.0, 0.0, 0.0, 0.0, 0.0, 1.6953711878212962E9, 0.0, 2023-09-22 10:26:27.821
50.0, 3270.0155103225125, 187500.0, -187500.02235174447, -187500.02235174447, 187500.0, -187500.02235174447, -187500.02235174447, 187500.0, 0.038, -0.024, 1.002, 192.0, 1.0, 48.0, 255.0, 64.0, 31.0, 80.0, 0.0, 0.0, 0.0, 1.6953711878213427E9, 0.0, 2023-09-22 10:26:27.821
51.0, 5858.2134077803385, 187500.0, -187500.02235174447, -187500.02235174447, 187500.0, -187500.02235174447, -187500.02235174447, 187500.0, 0.038, -0.024, 1.002, 192.0, 0.0, 0.0, 0.0, 0.0, 0.0, 0.0, 0.0, 0.0, 0.0, 1.6953711878213878E9, 0.0, 2023-09-22 10:26:27.821
52.0, 7756.032974247096, 187500.0, -187500.02235174447, -187500.02235174447, 187500.0, -187500.02235174447, -187500.02235174447, 187500.0, 0.038, -0.024, 1.002, 192.0, 0.0, 0.0, 0.0, 0.0, 0.0, 0.0, 0.0, 0.0, 0.0, 1.6953711878214447E9, 0.0, 2023-09-22 10:26:27.821
53.0, 6727.0704182470345, 187500.0, -187500.02235174447, -187500.02235174447, 187500.0, -187500.02235174447, -187500.02235174447, 187500.0, 0.038, -0.024, 1.002, 192.0, 0.0, 0.0, 0.0, 0.0, 0.0, 0.0, 0.0, 0.0, 0.0, 1.6953711878214936E9, 0.0, 2023-09-22 10:26:27.821
54.0, 3697.604381752537, 187500.0, -187500.02235174447, -187500.02235174447, 187500.0, -187500.02235174447, -187500.02235174447, 187500.0, 0.038, -0.024, 1.002, 192.0, 0.0, 0.0, 0.0, 0.0, 0.0, 0.0, 0.0, 0.0, 0.0, 1.6953711878215382E9, 0.0, 2023-09-22 10:26:27.821
55.0, 1111.5969552513309, 187500.0, -187500.02235174447, -187500.02235174447, 187500.0, -187500.02235174447, -187500.02235174447, 187500.0, 0.038, -0.024, 1.002, 192.0, 0.0, 0.0, 0.0, 0.0, 0.0, 0.0, 0.0, 0.0, 0.0, 1.6953711878215837E9, 0.0, 2023-09-22 10:26:27.821
56.0, -809.2896114933028, 187500.0, -187500.02235174447, -187500.02235174447, 187500.0, -187500.02235174447, -187500.02235174447, 187500.0, 0.038, -0.024, 1.002, 192.0, 0.0, 0.0, 0.0, 0.0, 0.0, 0.0, 0.0, 0.0, 0.0, 1.6953711878216307E9, 0.0, 2023-09-22 10:26:27.821
57.0, 266.0751659959753, 187500.0, -187500.02235174447, -187500.02235174447, 187500.0, -187500.02235174447, -187500.02235174447, 187500.0, 0.038, -0.024, 1.002, 192.0, 0.0, 0.0, 0.0, 0.0, 0.0, 0.0, 0.0, 0.0, 0.0, 1.695371187821676E9, 0.0, 2023-09-22 10:26:27.821
58.0, 3335.9755082101237, 187500.0, -187500.02235174447, -187500.02235174447, 187500.0, -187500.02235174447, -187500.02235174447, 187500.0, 0.038, -0.024, 1.002, 192.0, 0.0, 0.0, 0.0, 0.0, 0.0, 0.0, 0.0, 0.0, 0.0, 1.695371187821722E9, 0.0, 2023-09-22 10:26:27.821
59.0, 5913.869251474053, 187500.0, -187500.02235174447, -187500.02235174447, 187500.0, -187500.02235174447, -187500.02235174447, 187500.0, 0.038, -0.024, 1.002, 192.0, 0.0, 0.0, 0.0, 0.0, 0.0, 0.0, 0.0, 0.0, 0.0, 1.6953711878217697E9, 0.0, 2023-09-22 10:26:27.821
60.0, 7787.615989162445, 187500.0, -187500.02235174447, -187500.02235174447, 187500.0, -187500.02235174447, -187500.02235174447, 187500.0, 0.036000000000000004, -0.024, 1.012, 192.0, 1.0, 32.0, 255.0, 64.0, 31.0, 160.0, 0.0, 0.0, 0.0, 1.6953711878218157E9, 0.0, 2023-09-22 10:26:27.821
61.0, 6694.526278320108, 187500.0, -187500.02235174447, -187500.02235174447, 187500.0, -187500.02235174447, -187500.02235174447, 187500.0, 0.036000000000000004, -0.024, 1.012, 192.0, 0.0, 0.0, 0.0, 0.0, 0.0, 0.0, 0.0, 0.0, 0.0, 1.695371187821915E9, 0.0, 2023-09-22 10:26:27.821
62.0, 3677.2642942982075, 187500.0, -187500.02235174447, -187500.02235174447, 187500.0, -187500.02235174447, -187500.02235174447, 187500.0, 0.036000000000000004, -0.024, 1.012, 192.0, 0.0, 0.0, 0.0, 0.0, 0.0, 0.0, 0.0, 0.0, 0.0, 1.6953711878219566E9, 0.0, 2023-09-22 10:26:27.821
63.0, 1119.8223972108838, 187500.0, -187500.02235174447, -187500.02235174447, 187500.0, -187500.02235174447, -187500.02235174447, 187500.0, 0.036000000000000004, -0.024, 1.012, 192.0, 0.0, 0.0, 0.0, 0.0, 0.0, 0.0, 0.0, 0.0, 0.0, 1.6953711878219988E9, 0.0, 2023-09-22 10:26:27.821
64.0, -784.2333059589037, 187500.0, -187500.02235174447, -187500.02235174447, 187500.0, -187500.02235174447, -187500.02235174447, 187500.0, 0.036000000000000004, -0.024, 1.012, 192.0, 0.0, 0.0, 0.0, 0.0, 0.0, 0.0, 0.0, 0.0, 0.0, 1.695371187822042E9, 0.0, 2023-09-22 10:26:27.822
65.0, 299.0439890675532, 187500.0, -187500.02235174447, -187500.02235174447, 187500.0, -187500.02235174447, -187500.02235174447, 187500.0, 0.036000000000000004, -0.024, 1.012, 192.0, 0.0, 0.0, 0.0, 0.0, 0.0, 0.0, 0.0, 0.0, 0.0, 1.6953711878220854E9, 0.0, 2023-09-22 10:26:27.822
66.0, 3272.7647748905156, 187500.0, -187500.02235174447, -187500.02235174447, 187500.0, -187500.02235174447, -187500.02235174447, 187500.0, 0.036000000000000004, -0.024, 1.012, 192.0, 0.0, 0.0, 0.0, 0.0, 0.0, 0.0, 0.0, 0.0, 0.0, 1.6953711878221314E9, 0.0, 2023-09-22 10:26:27.822
67.0, 5851.641994910478, 187500.0, -187500.02235174447, -187500.02235174447, 187500.0, -187500.02235174447, -187500.02235174447, 187500.0, 0.036000000000000004, -0.024, 1.012, 192.0, 0.0, 0.0, 0.0, 0.0, 0.0, 0.0, 0.0, 0.0, 0.0, 1.6953711878221786E9, 0.0, 2023-09-22 10:26:27.822
68.0, 7794.187402032305, 187500.0, -187500.02235174447, -187500.02235174447, 187500.0, -187500.02235174447, -187500.02235174447, 187500.0, 0.036000000000000004, -0.024, 1.012, 192.0, 0.0, 0.0, 0.0, 0.0, 0.0, 0.0, 0.0, 0.0, 0.0, 1.695371187822224E9, 0.0, 2023-09-22 10:26:27.822
69.0, 6726.288107191099, 187500.0, -187500.02235174447, -187500.02235174447, 187500.0, -187500.02235174447, -187500.02235174447, 187500.0, 0.036000000000000004, -0.024, 1.012, 192.0, 0.0, 0.0, 0.0, 0.0, 0.0, 0.0, 0.0, 0.0, 0.0, 1.6953711878222666E9, 0.0, 2023-09-22 10:26:27.822
70.0, 3723.711219276335, 187500.0, -187500.02235174447, -187500.02235174447, 187500.0, -187500.02235174447, -187500.02235174447, 187500.0, 0.034, -0.024, 1.012, 192.0, 1.0, 16.0, 255.0, 64.0, 31.0, 160.0, 0.0, 0.0, 0.0, 1.6953711878223207E9, 0.0, 2023-09-22 10:26:27.822
71.0, 1143.6046533113306, 187500.0, -187500.02235174447, -187500.02235174447, 187500.0, -187500.02235174447, -187500.02235174447, 187500.0, 0.034, -0.024, 1.012, 192.0, 0.0, 0.0, 0.0, 0.0, 0.0, 0.0, 0.0, 0.0, 0.0, 1.6953711878223715E9, 0.0, 2023-09-22 10:26:27.822
72.0, -786.6025908711662, 187500.0, -187500.02235174447, -187500.02235174447, 187500.0, -187500.02235174447, -187500.02235174447, 187500.0, 0.034, -0.024, 1.012, 192.0, 0.0, 0.0, 0.0, 0.0, 0.0, 0.0, 0.0, 0.0, 0.0, 1.6953711878224244E9, 0.0, 2023-09-22 10:26:27.822
73.0, 274.90410505582156, 187500.0, -187500.02235174447, -187500.02235174447, 187500.0, -187500.02235174447, -187500.02235174447, 187500.0, 0.034, -0.024, 1.012, 192.0, 0.0, 0.0, 0.0, 0.0, 0.0, 0.0, 0.0, 0.0, 0.0, 1.695371187822554E9, 0.0, 2023-09-22 10:26:27.822
74.0, 3338.2106826556546, 187500.0, -187500.02235174447, -187500.02235174447, 187500.0, -187500.02235174447, -187500.02235174447, 187500.0, 0.034, -0.024, 1.012, 192.0, 0.0, 0.0, 0.0, 0.0, 0.0, 0.0, 0.0, 0.0, 0.0, 1.6953711878226097E9, 0.0, 2023-09-22 10:26:27.822
75.0, 5917.534937564724, 187500.0, -187500.02235174447, -187500.02235174447, 187500.0, -187500.02235174447, -187500.02235174447, 187500.0, 0.034, -0.024, 1.012, 192.0, 0.0, 0.0, 0.0, 0.0, 0.0, 0.0, 0.0, 0.0, 0.0, 1.6953711878226576E9, 0.0, 2023-09-22 10:26:27.822
76.0, 7801.786995147109, 187500.0, -187500.02235174447, -187500.02235174447, 187500.0, -187500.02235174447, -187500.02235174447, 187500.0, 0.034, -0.024, 1.012, 192.0, 0.0, 0.0, 0.0, 0.0, 0.0, 0.0, 0.0, 0.0, 0.0, 1.6953711878228204E9, 0.0, 2023-09-22 10:26:27.822
77.0, 6734.33473519501, 187500.0, -187500.02235174447, -187500.02235174447, 187500.0, -187500.02235174447, -187500.02235174447, 187500.0, 0.034, -0.024, 1.012, 192.0, 0.0, 0.0, 0.0, 0.0, 0.0, 0.0, 0.0, 0.0, 0.0, 1.69537118782288E9, 0.0, 2023-09-22 10:26:27.822
78.0, 3708.3555708355393, 187500.0, -187500.02235174447, -187500.02235174447, 187500.0, -187500.02235174447, -187500.02235174447, 187500.0, 0.034, -0.024, 1.012, 192.0, 0.0, 0.0, 0.0, 0.0, 0.0, 0.0, 0.0, 0.0, 0.0, 1.695371187822935E9, 0.0, 2023-09-22 10:26:27.822
79.0, 1139.916615476205, 187500.0, -187500.02235174447, -187500.02235174447, 187500.0, -187500.02235174447, -187500.02235174447, 187500.0, 0.034, -0.024, 1.012, 192.0, 0.0, 0.0, 0.0, 0.0, 0.0, 0.0, 0.0, 0.0, 0.0, 1.695371187823002E9, 0.0, 2023-09-22 10:26:27.823
80.0, -797.5996491431772, 187500.0, -187500.02235174447, -187500.02235174447, 187500.0, -187500.02235174447, -187500.02235174447, 187500.0, 0.032, -0.03, 1.01, 192.0, 1.0, 0.0, 255.0, 16.0, 31.0, 144.0, 0.0, 0.0, 0.0, 1.6953711878230822E9, 0.0, 2023-09-22 10:26:27.823
81.0, 258.74379381463456, 187500.0, -187500.02235174447, -187500.02235174447, 187500.0, -187500.02235174447, -187500.02235174447, 187500.0, 0.032, -0.03, 1.01, 192.0, 0.0, 0.0, 0.0, 0.0, 0.0, 0.0, 0.0, 0.0, 0.0, 1.6953711878231647E9, 0.0, 2023-09-22 10:26:27.823
82.0, 3292.7695861780153, 187500.0, -187500.02235174447, -187500.02235174447, 187500.0, -187500.02235174447, -187500.02235174447, 187500.0, 0.032, -0.03, 1.01, 192.0, 0.0, 0.0, 0.0, 0.0, 0.0, 0.0, 0.0, 0.0, 0.0, 1.6953711878232377E9, 0.0, 2023-09-22 10:26:27.823
83.0, 5861.432058981903, 187500.0, -187500.02235174447, -187500.02235174447, 187500.0, -187500.02235174447, -187500.02235174447, 187500.0, 0.032, -0.03, 1.01, 192.0, 0.0, 0.0, 0.0, 0.0, 0.0, 0.0, 0.0, 0.0, 0.0, 1.6953711878233109E9, 0.0, 2023-09-22 10:26:27.823
84.0, 7792.443965964791, 187500.0, -187500.02235174447, -187500.02235174447, 187500.0, -187500.02235174447, -187500.02235174447, 187500.0, 0.032, -0.03, 1.01, 192.0, 0.0, 0.0, 0.0, 0.0, 0.0, 0.0, 0.0, 0.0, 0.0, 1.6953711878233688E9, 0.0, 2023-09-22 10:26:27.823
85.0, 6730.222014215233, 187500.0, -187500.02235174447, -187500.02235174447, 187500.0, -187500.02235174447, -187500.02235174447, 187500.0, 0.032, -0.03, 1.01, 192.0, 0.0, 0.0, 0.0, 0.0, 0.0, 0.0, 0.0, 0.0, 0.0, 1.6953711878234432E9, 0.0, 2023-09-22 10:26:27.823
86.0, 3707.3273905905953, 187500.0, -187500.02235174447, -187500.02235174447, 187500.0, -187500.02235174447, -187500.02235174447, 187500.0, 0.032, -0.03, 1.01, 192.0, 0.0, 0.0, 0.0, 0.0, 0.0, 0.0, 0.0, 0.0, 0.0, 1.6953711878235269E9, 0.0, 2023-09-22 10:26:27.823
87.0, 1140.3189468764003, 187500.0, -187500.02235174447, -187500.02235174447, 187500.0, -187500.02235174447, -187500.02235174447, 187500.0, 0.032, -0.03, 1.01, 192.0, 0.0, 0.0, 0.0, 0.0, 0.0, 0.0, 0.0, 0.0, 0.0, 1.6953711878236244E9, 0.0, 2023-09-22 10:26:27.823
88.0, -789.7765385838197, 187500.0, -187500.02235174447, -187500.02235174447, 187500.0, -187500.02235174447, -187500.02235174447, 187500.0, 0.032, -0.03, 1.01, 192.0, 0.0, 0.0, 0.0, 0.0, 0.0, 0.0, 0.0, 0.0, 0.0, 1.6953711878237135E9, 0.0, 2023-09-22 10:26:27.823
89.0, 282.2354772371623, 187500.0, -187500.02235174447, -187500.02235174447, 187500.0, -187500.02235174447, -187500.02235174447, 187500.0, 0.032, -0.026000000000000002, 1.01, 192.0, 1.0, 0.0, 255.0, 48.0, 31.0, 144.0, 0.0, 0.0, 0.0, 1.6953711878238025E9, 0.0, 2023-09-22 10:26:27.823
90.0, 3321.3351155918976, 187500.0, -187500.02235174447, -187500.02235174447, 187500.0, -187500.02235174447, -187500.02235174447, 187500.0, 0.032, -0.026000000000000002, 1.01, 192.0, 0.0, 0.0, 0.0, 0.0, 0.0, 0.0, 0.0, 0.0, 0.0, 1.6953711878238995E9, 0.0, 2023-09-22 10:26:27.823
91.0, 5883.873210415031, 187500.0, -187500.02235174447, -187500.02235174447, 187500.0, -187500.02235174447, -187500.02235174447, 187500.0, 0.032, -0.026000000000000002, 1.01, 192.0, 0.0, 0.0, 0.0, 0.0, 0.0, 0.0, 0.0, 0.0, 0.0, 1.695371187824123E9, 0.0, 2023-09-22 10:26:27.824
92.0, 7782.005701304162, 187500.0, -187500.02235174447, -187500.02235174447, 187500.0, -187500.02235174447, -187500.02235174447, 187500.0, 0.032, -0.026000000000000002, 1.01, 192.0, 0.0, 0.0, 0.0, 0.0, 0.0, 0.0, 0.0, 0.0, 0.0, 1.695371187824168E9, 0.0, 2023-09-22 10:26:27.824
93.0, 6728.970316525736, 187500.0, -187500.02235174447, -187500.02235174447, 187500.0, -187500.02235174447, -187500.02235174447, 187500.0, 0.032, -0.026000000000000002, 1.01, 192.0, 0.0, 0.0, 0.0, 0.0, 0.0, 0.0, 0.0, 0.0, 0.0, 1.6953711878242164E9, 0.0, 2023-09-22 10:26:27.824
94.0, 3703.885221944478, 187500.0, -187500.02235174447, -187500.02235174447, 187500.0, -187500.02235174447, -187500.02235174447, 187500.0, 0.032, -0.026000000000000002, 1.01, 192.0, 0.0, 0.0, 0.0, 0.0, 0.0, 0.0, 0.0, 0.0, 0.0, 1.695371187824263E9, 0.0, 2023-09-22 10:26:27.824
95.0, 1082.3161700148785, 187500.0, -187500.02235174447, -187500.02235174447, 187500.0, -187500.02235174447, -187500.02235174447, 187500.0, 0.032, -0.026000000000000002, 1.01, 192.0, 0.0, 0.0, 0.0, 0.0, 0.0, 0.0, 0.0, 0.0, 0.0, 1.695371187824312E9, 0.0, 2023-09-22 10:26:27.824
96.0, -824.7123151674647, 187500.0, -187500.02235174447, -187500.02235174447, 187500.0, -187500.02235174447, -187500.02235174447, 187500.0, 0.032, -0.026000000000000002, 1.01, 192.0, 0.0, 0.0, 0.0, 0.0, 0.0, 0.0, 0.0, 0.0, 0.0, 1.695371187824359E9, 0.0, 2023-09-22 10:26:27.824
97.0, 275.88758181185506, 187500.0, -187500.02235174447, -187500.02235174447, 187500.0, -187500.02235174447, -187500.02235174447, 187500.0, 0.032, -0.026000000000000002, 1.01, 192.0, 0.0, 0.0, 0.0, 0.0, 0.0, 0.0, 0.0, 0.0, 0.0, 1.695371187824407E9, 0.0, 2023-09-22 10:26:27.824
98.0, 3304.8618799283363, 187500.0, -187500.02235174447, -187500.02235174447, 187500.0, -187500.02235174447, -187500.02235174447, 187500.0, 0.032, -0.026000000000000002, 1.01, 192.0, 0.0, 0.0, 0.0, 0.0, 0.0, 0.0, 0.0, 0.0, 0.0, 1.6953711878244495E9, 0.0, 2023-09-22 10:26:27.824
99.0, 5893.104480875073, 187500.0, -187500.02235174447, -187500.02235174447, 187500.0, -187500.02235174447, -187500.02235174447, 187500.0, 0.028, -0.024, 1.008, 192.0, 0.0, 224.0, 255.0, 64.0, 31.0, 128.0, 0.0, 0.0, 0.0, 1.6953711878244908E9, 0.0, 2023-09-22 10:26:27.824
100.0, 7788.6888728962995, 187500.0, -187500.02235174447, -187500.02235174447, 187500.0, -187500.02235174447, -187500.02235174447, 187500.0, 0.028, -0.024, 1.008, 192.0, 0.0, 0.0, 0.0, 0.0, 0.0, 0.0, 0.0, 0.0, 0.0, 1.6953711878245351E9, 0.0, 2023-09-22 10:26:27.824
101.0, 6698.549592322063, 187500.0, -187500.02235174447, -187500.02235174447, 187500.0, -187500.02235174447, -187500.02235174447, 187500.0, 0.028, -0.024, 1.008, 192.0, 0.0, 0.0, 0.0, 0.0, 0.0, 0.0, 0.0, 0.0, 0.0, 1.695371187824582E9, 0.0, 2023-09-22 10:26:27.824
102.0, 3660.3887272344505, 187500.0, -187500.02235174447, -187500.02235174447, 187500.0, -187500.02235174447, -187500.02235174447, 187500.0, 0.028, -0.024, 1.008, 192.0, 0.0, 0.0, 0.0, 0.0, 0.0, 0.0, 0.0, 0.0, 0.0, 1.6953711878246262E9, 0.0, 2023-09-22 10:26:27.824
103.0, 1157.2839209179785, 187500.0, -187500.02235174447, -187500.02235174447, 187500.0, -187500.02235174447, -187500.02235174447, 187500.0, 0.028, -0.024, 1.008, 192.0, 0.0, 0.0, 0.0, 0.0, 0.0, 0.0, 0.0, 0.0, 0.0, 1.6953711878246708E9, 0.0, 2023-09-22 10:26:27.824
104.0, -759.0428899577726, 187500.0, -187500.02235174447, -187500.02235174447, 187500.0, -187500.02235174447, -187500.02235174447, 187500.0, 0.028, -0.024, 1.008, 192.0, 0.0, 0.0, 0.0, 0.0, 0.0, 0.0, 0.0, 0.0, 0.0, 1.695371187824716E9, 0.0, 2023-09-22 10:26:27.824
105.0, 309.23638453917323, 187500.0, -187500.02235174447, -187500.02235174447, 187500.0, -187500.02235174447, -187500.02235174447, 187500.0, 0.028, -0.024, 1.008, 192.0, 0.0, 0.0, 0.0, 0.0, 0.0, 0.0, 0.0, 0.0, 0.0, 1.6953711882971709E9, 0.0, 2023-09-22 10:26:28.297
106.0, 3318.1388161347886, 187500.0, -187500.02235174447, -187500.02235174447, 187500.0, -187500.02235174447, -187500.02235174447, 187500.0, 0.028, -0.024, 1.008, 192.0, 0.0, 0.0, 0.0, 0.0, 0.0, 0.0, 0.0, 0.0, 0.0, 1.6953711882977457E9, 0.0, 2023-09-22 10:26:28.297
107.0, 5877.525314989724, 187500.0, -187500.02235174447, -187500.02235174447, 187500.0, -187500.02235174447, -187500.02235174447, 187500.0, 0.028, -0.024, 1.008, 192.0, 0.0, 0.0, 0.0, 0.0, 0.0, 0.0, 0.0, 0.0, 0.0, 1.69537118829783E9, 0.0, 2023-09-22 10:26:28.297
108.0, 7798.501288712179, 187500.0, -187500.02235174447, -187500.02235174447, 187500.0, -187500.02235174447, -187500.02235174447, 187500.0, 0.028, -0.024, 1.008, 192.0, 0.0, 0.0, 0.0, 0.0, 0.0, 0.0, 0.0, 0.0, 0.0, 1.6953711882979085E9, 0.0, 2023-09-22 10:26:28.297
109.0, 6729.842034559493, 187500.0, -187500.02235174447, -187500.02235174447, 187500.0, -187500.02235174447, -187500.02235174447, 187500.0, 0.028, -0.024, 1.004, 192.0, 0.0, 224.0, 255.0, 64.0, 31.0, 96.0, 0.0, 0.0, 0.0, 1.6953711882979608E9, 0.0, 2023-09-22 10:26:28.297
110.0, 3716.0669226726204, 187500.0, -187500.02235174447, -187500.02235174447, 187500.0, -187500.02235174447, -187500.02235174447, 187500.0, 0.028, -0.024, 1.004, 192.0, 0.0, 0.0, 0.0, 0.0, 0.0, 0.0, 0.0, 0.0, 0.0, 1.695371188298074E9, 0.0, 2023-09-22 10:26:28.298
111.0, 1160.234351186079, 187500.0, -187500.02235174447, -187500.02235174447, 187500.0, -187500.02235174447, -187500.02235174447, 187500.0, 0.028, -0.024, 1.004, 192.0, 0.0, 0.0, 0.0, 0.0, 0.0, 0.0, 0.0, 0.0, 0.0, 1.6953711882981608E9, 0.0, 2023-09-22 10:26:28.298
112.0, -764.7202330494206, 187500.0, -187500.02235174447, -187500.02235174447, 187500.0, -187500.02235174447, -187500.02235174447, 187500.0, 0.028, -0.024, 1.004, 192.0, 0.0, 0.0, 0.0, 0.0, 0.0, 0.0, 0.0, 0.0, 0.0, 1.6953711882982132E9, 0.0, 2023-09-22 10:26:28.298
113.0, 269.04794800853114, 187500.0, -187500.02235174447, -187500.02235174447, 187500.0, -187500.02235174447, -187500.02235174447, 187500.0, 0.028, -0.024, 1.004, 192.0, 0.0, 0.0, 0.0, 0.0, 0.0, 0.0, 0.0, 0.0, 0.0, 1.695371188298272E9, 0.0, 2023-09-22 10:26:28.298
114.0, 3321.0892464028893, 187500.0, -187500.02235174447, -187500.02235174447, 187500.0, -187500.02235174447, -187500.02235174447, 187500.0, 0.028, -0.024, 1.004, 192.0, 0.0, 0.0, 0.0, 0.0, 0.0, 0.0, 0.0, 0.0, 0.0, 1.6953711882983167E9, 0.0, 2023-09-22 10:26:28.298
115.0, 5895.272600087238, 187500.0, -187500.02235174447, -187500.02235174447, 187500.0, -187500.02235174447, -187500.02235174447, 187500.0, 0.028, -0.024, 1.004, 192.0, 0.0, 0.0, 0.0, 0.0, 0.0, 0.0, 0.0, 0.0, 0.0, 1.6953711882983568E9, 0.0, 2023-09-22 10:26:28.298
116.0, 7800.110614312961, 187500.0, -187500.02235174447, -187500.02235174447, 187500.0, -187500.02235174447, -187500.02235174447, 187500.0, 0.028, -0.024, 1.004, 192.0, 0.0, 0.0, 0.0, 0.0, 0.0, 0.0, 0.0, 0.0, 0.0, 1.695371188298398E9, 0.0, 2023-09-22 10:26:28.298
117.0, 6709.904278505359, 187500.0, -187500.02235174447, -187500.02235174447, 187500.0, -187500.02235174447, -187500.02235174447, 187500.0, 0.028, -0.024, 1.004, 192.0, 0.0, 0.0, 0.0, 0.0, 0.0, 0.0, 0.0, 0.0, 0.0, 1.6953711882984416E9, 0.0, 2023-09-22 10:26:28.298
118.0, 3694.8774689289894, 187500.0, -187500.02235174447, -187500.02235174447, 187500.0, -187500.02235174447, -187500.02235174447, 187500.0, 0.028, -0.024, 1.004, 192.0, 0.0, 0.0, 0.0, 0.0, 0.0, 0.0, 0.0, 0.0, 0.0, 1.695371188298484E9, 0.0, 2023-09-22 10:26:28.298
119.0, 1164.1459064657577, 187500.0, -187500.02235174447, -187500.02235174447, 187500.0, -187500.02235174447, -187500.02235174447, 187500.0, 0.03, -0.026000000000000002, 1.002, 192.0, 0.0, 240.0, 255.0, 48.0, 31.0, 80.0, 0.0, 0.0, 0.0, 1.6953711882985227E9, 0.0, 2023-09-22 10:26:28.298
120.0, -774.6891110764875, 187500.0, -187500.02235174447, -187500.02235174447, 187500.0, -187500.02235174447, -187500.02235174447, 187500.0, 0.03, -0.026000000000000002, 1.002, 192.0, 0.0, 0.0, 0.0, 0.0, 0.0, 0.0, 0.0, 0.0, 0.0, 1.6953711882985644E9, 0.0, 2023-09-22 10:26:28.298
121.0, 272.4901166546484, 187500.0, -187500.02235174447, -187500.02235174447, 187500.0, -187500.02235174447, -187500.02235174447, 187500.0, 0.03, -0.026000000000000002, 1.002, 192.0, 0.0, 0.0, 0.0, 0.0, 0.0, 0.0, 0.0, 0.0, 0.0, 1.6953711882986774E9, 0.0, 2023-09-22 10:26:28.298
122.0, 3337.070743688434, 187500.0, -187500.02235174447, -187500.02235174447, 187500.0, -187500.02235174447, -187500.02235174447, 187500.0, 0.03, -0.026000000000000002, 1.002, 192.0, 0.0, 0.0, 0.0, 0.0, 0.0, 0.0, 0.0, 0.0, 0.0, 1.6953711882987196E9, 0.0, 2023-09-22 10:26:28.298
123.0, 5941.272490176259, 187500.0, -187500.02235174447, -187500.02235174447, 187500.0, -187500.02235174447, -187500.02235174447, 187500.0, 0.03, -0.026000000000000002, 1.002, 192.0, 0.0, 0.0, 0.0, 0.0, 0.0, 0.0, 0.0, 0.0, 0.0, 1.695371188298761E9, 0.0, 2023-09-22 10:26:28.298
124.0, 7849.396210836913, 187500.0, -187500.02235174447, -187500.02235174447, 187500.0, -187500.02235174447, -187500.02235174447, 187500.0, 0.03, -0.026000000000000002, 1.002, 192.0, 0.0, 0.0, 0.0, 0.0, 0.0, 0.0, 0.0, 0.0, 0.0, 1.695371188298804E9, 0.0, 2023-09-22 10:26:28.298
125.0, 6757.155866283878, 187500.0, -187500.02235174447, -187500.02235174447, 187500.0, -187500.02235174447, -187500.02235174447, 187500.0, 0.03, -0.026000000000000002, 1.002, 192.0, 0.0, 0.0, 0.0, 0.0, 0.0, 0.0, 0.0, 0.0, 0.0, 1.6953711882988465E9, 0.0, 2023-09-22 10:26:28.298
126.0, 3769.532295409715, 187500.0, -187500.02235174447, -187500.02235174447, 187500.0, -187500.02235174447, -187500.02235174447, 187500.0, 0.03, -0.026000000000000002, 1.002, 192.0, 0.0, 0.0, 0.0, 0.0, 0.0, 0.0, 0.0, 0.0, 0.0, 1.695371188298888E9, 0.0, 2023-09-22 10:26:28.298
127.0, 1154.713470305618, 187500.0, -187500.02235174447, -187500.02235174447, 187500.0, -187500.02235174447, -187500.02235174447, 187500.0, 0.03, -0.026000000000000002, 1.002, 192.0, 0.0, 0.0, 0.0, 0.0, 0.0, 0.0, 0.0, 0.0, 0.0, 1.6953711882989295E9, 0.0, 2023-09-22 10:26:28.298
128.0, -736.1100001466275, 187500.0, -187500.02235174447, -187500.02235174447, 187500.0, -187500.02235174447, -187500.02235174447, 187500.0, 0.03, -0.026000000000000002, 1.002, 192.0, 0.0, 0.0, 0.0, 0.0, 0.0, 0.0, 0.0, 0.0, 0.0, 1.6953711882989676E9, 0.0, 2023-09-22 10:26:28.298
129.0, 322.8933004013658, 187500.0, -187500.02235174447, -187500.02235174447, 187500.0, -187500.02235174447, -187500.02235174447, 187500.0, 0.034, -0.022, 1.0, 192.0, 1.0, 16.0, 255.0, 80.0, 31.0, 64.0, 0.0, 0.0, 0.0, 1.695371188298993E9, 0.0, 2023-09-22 10:26:28.298
130.0, 3351.6217293288387, 187500.0, -187500.02235174447, -187500.02235174447, 187500.0, -187500.02235174447, -187500.02235174447, 187500.0, 0.034, -0.022, 1.0, 192.0, 0.0, 0.0, 0.0, 0.0, 0.0, 0.0, 0.0, 0.0, 0.0, 1.69537118829902E9, 0.0, 2023-09-22 10:26:28.299
131.0, 5898.424196055436, 187500.0, -187500.02235174447, -187500.02235174447, 187500.0, -187500.02235174447, -187500.02235174447, 187500.0, 0.034, -0.022, 1.0, 192.0, 0.0, 0.0, 0.0, 0.0, 0.0, 0.0, 0.0, 0.0, 0.0, 1.695371188299045E9, 0.0, 2023-09-22 10:26:28.299
132.0, 7810.280658040126, 187500.0, -187500.02235174447, -187500.02235174447, 187500.0, -187500.02235174447, -187500.02235174447, 187500.0, 0.034, -0.022, 1.0, 192.0, 0.0, 0.0, 0.0, 0.0, 0.0, 0.0, 0.0, 0.0, 0.0, 1.6953711882990696E9, 0.0, 2023-09-22 10:26:28.299
133.0, 6756.57472092804, 187500.0, -187500.02235174447, -187500.02235174447, 187500.0, -187500.02235174447, -187500.02235174447, 187500.0, 0.034, -0.022, 1.0, 192.0, 0.0, 0.0, 0.0, 0.0, 0.0, 0.0, 0.0, 0.0, 0.0, 1.695371188299094E9, 0.0, 2023-09-22 10:26:28.299
134.0, 3736.049382215665, 187500.0, -187500.02235174447, -187500.02235174447, 187500.0, -187500.02235174447, -187500.02235174447, 187500.0, 0.034, -0.022, 1.0, 192.0, 0.0, 0.0, 0.0, 0.0, 0.0, 0.0, 0.0, 0.0, 0.0, 1.6953711882991192E9, 0.0, 2023-09-22 10:26:28.299
135.0, 1154.2887871609673, 187500.0, -187500.02235174447, -187500.02235174447, 187500.0, -187500.02235174447, -187500.02235174447, 187500.0, 0.034, -0.022, 1.0, 192.0, 0.0, 0.0, 0.0, 0.0, 0.0, 0.0, 0.0, 0.0, 0.0, 1.6953711882991436E9, 0.0, 2023-09-22 10:26:28.299
136.0, -765.0778609607055, 187500.0, -187500.02235174447, -187500.02235174447, 187500.0, -187500.02235174447, -187500.02235174447, 187500.0, 0.034, -0.022, 1.0, 192.0, 0.0, 0.0, 0.0, 0.0, 0.0, 0.0, 0.0, 0.0, 0.0, 1.6953711882992153E9, 0.0, 2023-09-22 10:26:28.299
137.0, 301.70384665773474, 187500.0, -187500.02235174447, -187500.02235174447, 187500.0, -187500.02235174447, -187500.02235174447, 187500.0, 0.034, -0.022, 1.0, 192.0, 0.0, 0.0, 0.0, 0.0, 0.0, 0.0, 0.0, 0.0, 0.0, 1.6953711882992408E9, 0.0, 2023-09-22 10:26:28.299
138.0, 3348.872464760836, 187500.0, -187500.02235174447, -187500.02235174447, 187500.0, -187500.02235174447, -187500.02235174447, 187500.0, 0.034, -0.022, 1.0, 192.0, 0.0, 0.0, 0.0, 0.0, 0.0, 0.0, 0.0, 0.0, 0.0, 1.6953711882992651E9, 0.0, 2023-09-22 10:26:28.299
139.0, 5937.472693618857, 187500.0, -187500.02235174447, -187500.02235174447, 187500.0, -187500.02235174447, -187500.02235174447, 187500.0, 0.032, -0.024, 1.004, 192.0, 1.0, 0.0, 255.0, 64.0, 31.0, 96.0, 0.0, 0.0, 0.0, 1.6953711882992897E9, 0.0, 2023-09-22 10:26:28.299
140.0, 7833.370010062458, 187500.0, -187500.02235174447, -187500.02235174447, 187500.0, -187500.02235174447, -187500.02235174447, 187500.0, 0.032, -0.024, 1.004, 192.0, 0.0, 0.0, 0.0, 0.0, 0.0, 0.0, 0.0, 0.0, 0.0, 1.6953711882993157E9, 0.0, 2023-09-22 10:26:28.299
141.0, 6718.509700120652, 187500.0, -187500.02235174447, -187500.02235174447, 187500.0, -187500.02235174447, -187500.02235174447, 187500.0, 0.032, -0.024, 1.004, 192.0, 0.0, 0.0, 0.0, 0.0, 0.0, 0.0, 0.0, 0.0, 0.0, 1.69537118829934E9, 0.0, 2023-09-22 10:26:28.299
142.0, 3706.746245234757, 187500.0, -187500.02235174447, -187500.02235174447, 187500.0, -187500.02235174447, -187500.02235174447, 187500.0, 0.032, -0.024, 1.004, 192.0, 0.0, 0.0, 0.0, 0.0, 0.0, 0.0, 0.0, 0.0, 0.0, 1.6953711882993643E9, 0.0, 2023-09-22 10:26:28.299
143.0, 1143.5152463335094, 187500.0, -187500.02235174447, -187500.02235174447, 187500.0, -187500.02235174447, -187500.02235174447, 187500.0, 0.032, -0.024, 1.004, 192.0, 0.0, 0.0, 0.0, 0.0, 0.0, 0.0, 0.0, 0.0, 0.0, 1.695371188299389E9, 0.0, 2023-09-22 10:26:28.299
144.0, -732.4443140559572, 187500.0, -187500.02235174447, -187500.02235174447, 187500.0, -187500.02235174447, -187500.02235174447, 187500.0, 0.032, -0.024, 1.004, 192.0, 0.0, 0.0, 0.0, 0.0, 0.0, 0.0, 0.0, 0.0, 0.0, 1.6953711882994132E9, 0.0, 2023-09-22 10:26:28.299
145.0, 332.4821987726926, 187500.0, -187500.02235174447, -187500.02235174447, 187500.0, -187500.02235174447, -187500.02235174447, 187500.0, 0.032, -0.024, 1.004, 192.0, 0.0, 0.0, 0.0, 0.0, 0.0, 0.0, 0.0, 0.0, 0.0, 1.6953711882994394E9, 0.0, 2023-09-22 10:26:28.299
146.0, 3345.4079443702635, 187500.0, -187500.02235174447, -187500.02235174447, 187500.0, -187500.02235174447, -187500.02235174447, 187500.0, 0.032, -0.024, 1.004, 192.0, 0.0, 0.0, 0.0, 0.0, 0.0, 0.0, 0.0, 0.0, 0.0, 1.6953711882994895E9, 0.0, 2023-09-22 10:26:28.299
147.0, 5916.350295108592, 187500.0, -187500.02235174447, -187500.02235174447, 187500.0, -187500.02235174447, -187500.02235174447, 187500.0, 0.032, -0.024, 1.004, 192.0, 0.0, 0.0, 0.0, 0.0, 0.0, 0.0, 0.0, 0.0, 0.0, 1.6953711882995365E9, 0.0, 2023-09-22 10:26:28.299
148.0, 7802.949285858785, 187500.0, -187500.02235174447, -187500.02235174447, 187500.0, -187500.02235174447, -187500.02235174447, 187500.0, 0.032, -0.024, 1.004, 192.0, 0.0, 0.0, 0.0, 0.0, 0.0, 0.0, 0.0, 0.0, 0.0, 1.695371188299576E9, 0.0, 2023-09-22 10:26:28.299
149.0, 6717.6156303424395, 187500.0, -187500.02235174447, -187500.02235174447, 187500.0, -187500.02235174447, -187500.02235174447, 187500.0, 0.032, -0.022, 1.006, 192.0, 1.0, 0.0, 255.0, 80.0, 31.0, 112.0, 0.0, 0.0, 0.0, 1.6953711882996187E9, 0.0, 2023-09-22 10:26:28.299
150.0, 3714.8152249831232, 187500.0, -187500.02235174447, -187500.02235174447, 187500.0, -187500.02235174447, -187500.02235174447, 187500.0, 0.032, -0.022, 1.006, 192.0, 0.0, 0.0, 0.0, 0.0, 0.0, 0.0, 0.0, 0.0, 0.0, 1.6953711882996652E9, 0.0, 2023-09-22 10:26:28.299
151.0, 1124.7621327355066, 187500.0, -187500.02235174447, -187500.02235174447, 187500.0, -187500.02235174447, -187500.02235174447, 187500.0, 0.032, -0.022, 1.006, 192.0, 0.0, 0.0, 0.0, 0.0, 0.0, 0.0, 0.0, 0.0, 0.0, 1.6953711882997537E9, 0.0, 2023-09-22 10:26:28.299
152.0, -793.4198729300348, 187500.0, -187500.02235174447, -187500.02235174447, 187500.0, -187500.02235174447, -187500.02235174447, 187500.0, 0.032, -0.022, 1.006, 192.0, 0.0, 0.0, 0.0, 0.0, 0.0, 0.0, 0.0, 0.0, 0.0, 1.6953711882997968E9, 0.0, 2023-09-22 10:26:28.299
153.0, 281.16259350330756, 187500.0, -187500.02235174447, -187500.02235174447, 187500.0, -187500.02235174447, -187500.02235174447, 187500.0, 0.032, -0.022, 1.006, 192.0, 0.0, 0.0, 0.0, 0.0, 0.0, 0.0, 0.0, 0.0, 0.0, 1.6953711882998407E9, 0.0, 2023-09-22 10:26:28.299
154.0, 3303.31960956092, 187500.0, -187500.02235174447, -187500.02235174447, 187500.0, -187500.02235174447, -187500.02235174447, 187500.0, 0.032, -0.022, 1.006, 192.0, 0.0, 0.0, 0.0, 0.0, 0.0, 0.0, 0.0, 0.0, 0.0, 1.6953711882998796E9, 0.0, 2023-09-22 10:26:28.299
155.0, 5886.711881960855, 187500.0, -187500.02235174447, -187500.02235174447, 187500.0, -187500.02235174447, -187500.02235174447, 187500.0, 0.032, -0.022, 1.006, 192.0, 0.0, 0.0, 0.0, 0.0, 0.0, 0.0, 0.0, 0.0, 0.0, 1.6953711882999234E9, 0.0, 2023-09-22 10:26:28.299
156.0, 7798.389529989902, 187500.0, -187500.02235174447, -187500.02235174447, 187500.0, -187500.02235174447, -187500.02235174447, 187500.0, 0.032, -0.022, 1.006, 192.0, 0.0, 0.0, 0.0, 0.0, 0.0, 0.0, 0.0, 0.0, 0.0, 1.695371188299966E9, 0.0, 2023-09-22 10:26:28.299
157.0, 6728.210357214255, 187500.0, -187500.02235174447, -187500.02235174447, 187500.0, -187500.02235174447, -187500.02235174447, 187500.0, 0.032, -0.022, 1.006, 192.0, 0.0, 0.0, 0.0, 0.0, 0.0, 0.0, 0.0, 0.0, 0.0, 1.6953711883000097E9, 0.0, 2023-09-22 10:26:28.300
158.0, 3711.015428425721, 187500.0, -187500.02235174447, -187500.02235174447, 187500.0, -187500.02235174447, -187500.02235174447, 187500.0, 0.032, -0.022, 1.006, 192.0, 0.0, 0.0, 0.0, 0.0, 0.0, 0.0, 0.0, 0.0, 0.0, 1.6953711883000524E9, 0.0, 2023-09-22 10:26:28.300
159.0, 1142.4870660885651, 187500.0, -187500.02235174447, -187500.02235174447, 187500.0, -187500.02235174447, -187500.02235174447, 187500.0, 0.03, -0.026000000000000002, 1.006, 192.0, 0.0, 240.0, 255.0, 48.0, 31.0, 112.0, 0.0, 0.0, 0.0, 1.6953711883000953E9, 0.0, 2023-09-22 10:26:28.300
160.0, -774.286779676292, 187500.0, -187500.02235174447, -187500.02235174447, 187500.0, -187500.02235174447, -187500.02235174447, 187500.0, 0.03, -0.026000000000000002, 1.006, 192.0, 0.0, 0.0, 0.0, 0.0, 0.0, 0.0, 0.0, 0.0, 0.0, 1.6953711883001397E9, 0.0, 2023-09-22 10:26:28.300
161.0, 282.50369817062597, 187500.0, -187500.02235174447, -187500.02235174447, 187500.0, -187500.02235174447, -187500.02235174447, 187500.0, 0.03, -0.026000000000000002, 1.006, 192.0, 0.0, 0.0, 0.0, 0.0, 0.0, 0.0, 0.0, 0.0, 0.0, 1.6953711883001835E9, 0.0, 2023-09-22 10:26:28.300
162.0, 3302.872574671814, 187500.0, -187500.02235174447, -187500.02235174447, 187500.0, -187500.02235174447, -187500.02235174447, 187500.0, 0.03, -0.026000000000000002, 1.006, 192.0, 0.0, 0.0, 0.0, 0.0, 0.0, 0.0, 0.0, 0.0, 0.0, 1.6953711883002272E9, 0.0, 2023-09-22 10:26:28.300
163.0, 5910.3376758501145, 187500.0, -187500.02235174447, -187500.02235174447, 187500.0, -187500.02235174447, -187500.02235174447, 187500.0, 0.03, -0.026000000000000002, 1.006, 192.0, 0.0, 0.0, 0.0, 0.0, 0.0, 0.0, 0.0, 0.0, 0.0, 1.6953711883002713E9, 0.0, 2023-09-22 10:26:28.300
164.0, 7852.525455060656, 187500.0, -187500.02235174447, -187500.02235174447, 187500.0, -187500.02235174447, -187500.02235174447, 187500.0, 0.03, -0.026000000000000002, 1.006, 192.0, 0.0, 0.0, 0.0, 0.0, 0.0, 0.0, 0.0, 0.0, 0.0, 1.695371188300315E9, 0.0, 2023-09-22 10:26:28.300
165.0, 6741.576700398529, 187500.0, -187500.02235174447, -187500.02235174447, 187500.0, -187500.02235174447, -187500.02235174447, 187500.0, 0.03, -0.026000000000000002, 1.006, 192.0, 0.0, 0.0, 0.0, 0.0, 0.0, 0.0, 0.0, 0.0, 0.0, 1.6953711883003588E9, 0.0, 2023-09-22 10:26:28.300
166.0, 3718.9726494518104, 187500.0, -187500.02235174447, -187500.02235174447, 187500.0, -187500.02235174447, -187500.02235174447, 187500.0, 0.03, -0.026000000000000002, 1.006, 192.0, 0.0, 0.0, 0.0, 0.0, 0.0, 0.0, 0.0, 0.0, 0.0, 1.6953711883004491E9, 0.0, 2023-09-22 10:26:28.300
167.0, 1153.8864557607717, 187500.0, -187500.02235174447, -187500.02235174447, 187500.0, -187500.02235174447, -187500.02235174447, 187500.0, 0.03, -0.026000000000000002, 1.006, 192.0, 0.0, 0.0, 0.0, 0.0, 0.0, 0.0, 0.0, 0.0, 0.0, 1.6953711883004937E9, 0.0, 2023-09-22 10:26:28.300
168.0, -780.5676198682332, 187500.0, -187500.02235174447, -187500.02235174447, 187500.0, -187500.02235174447, -187500.02235174447, 187500.0, 0.03, -0.026000000000000002, 1.006, 192.0, 0.0, 0.0, 0.0, 0.0, 0.0, 0.0, 0.0, 0.0, 0.0, 1.695371188300538E9, 0.0, 2023-09-22 10:26:28.300
169.0, 307.0682653270084, 187500.0, -187500.02235174447, -187500.02235174447, 187500.0, -187500.02235174447, -187500.02235174447, 187500.0, 0.03, -0.02, 1.004, 192.0, 0.0, 240.0, 255.0, 96.0, 31.0, 96.0, 0.0, 0.0, 0.0, 1.6953711883005812E9, 0.0, 2023-09-22 10:26:28.300
170.0, 3338.545958822484, 187500.0, -187500.02235174447, -187500.02235174447, 187500.0, -187500.02235174447, -187500.02235174447, 187500.0, 0.03, -0.02, 1.004, 192.0, 0.0, 0.0, 0.0, 0.0, 0.0, 0.0, 0.0, 0.0, 0.0, 1.6953711883006256E9, 0.0, 2023-09-22 10:26:28.300
171.0, 5866.081221828606, 187500.0, -187500.02235174447, -187500.02235174447, 187500.0, -187500.02235174447, -187500.02235174447, 187500.0, 0.03, -0.02, 1.004, 192.0, 0.0, 0.0, 0.0, 0.0, 0.0, 0.0, 0.0, 0.0, 0.0, 1.6953711883006692E9, 0.0, 2023-09-22 10:26:28.300
172.0, 7768.2593784641485, 187500.0, -187500.02235174447, -187500.02235174447, 187500.0, -187500.02235174447, -187500.02235174447, 187500.0, 0.03, -0.02, 1.004, 192.0, 0.0, 0.0, 0.0, 0.0, 0.0, 0.0, 0.0, 0.0, 0.0, 1.6953711883007133E9, 0.0, 2023-09-22 10:26:28.300
173.0, 6728.277412447622, 187500.0, -187500.02235174447, -187500.02235174447, 187500.0, -187500.02235174447, -187500.02235174447, 187500.0, 0.03, -0.02, 1.004, 192.0, 0.0, 0.0, 0.0, 0.0, 0.0, 0.0, 0.0, 0.0, 0.0, 1.6953711883007567E9, 0.0, 2023-09-22 10:26:28.300
174.0, 3765.2407604742957, 187500.0, -187500.02235174447, -187500.02235174447, 187500.0, -187500.02235174447, -187500.02235174447, 187500.0, 0.03, -0.02, 1.004, 192.0, 0.0, 0.0, 0.0, 0.0, 0.0, 0.0, 0.0, 0.0, 0.0, 1.6953711883008E9, 0.0, 2023-09-22 10:26:28.300
175.0, 1203.9543633406597, 187500.0, -187500.02235174447, -187500.02235174447, 187500.0, -187500.02235174447, -187500.02235174447, 187500.0, 0.03, -0.02, 1.004, 192.0, 0.0, 0.0, 0.0, 0.0, 0.0, 0.0, 0.0, 0.0, 0.0, 1.6953711883008437E9, 0.0, 2023-09-22 10:26:28.300
176.0, -727.1245988755941, 187500.0, -187500.02235174447, -187500.02235174447, 187500.0, -187500.02235174447, -187500.02235174447, 187500.0, 0.03, -0.02, 1.004, 192.0, 0.0, 0.0, 0.0, 0.0, 0.0, 0.0, 0.0, 0.0, 0.0, 1.695371188300887E9, 0.0, 2023-09-22 10:26:28.300
177.0, 320.4793120001927, 187500.0, -187500.02235174447, -187500.02235174447, 187500.0, -187500.02235174447, -187500.02235174447, 187500.0, 0.03, -0.02, 1.004, 192.0, 0.0, 0.0, 0.0, 0.0, 0.0, 0.0, 0.0, 0.0, 0.0, 1.6953711883009305E9, 0.0, 2023-09-22 10:26:28.300
178.0, 3355.3321189084195, 187500.0, -187500.02235174447, -187500.02235174447, 187500.0, -187500.02235174447, -187500.02235174447, 187500.0, 0.03, -0.02, 1.004, 192.0, 0.0, 0.0, 0.0, 0.0, 0.0, 0.0, 0.0, 0.0, 0.0, 1.695371188300974E9, 0.0, 2023-09-22 10:26:28.300
179.0, 5958.148057240017, 187500.0, -187500.02235174447, -187500.02235174447, 187500.0, -187500.02235174447, -187500.02235174447, 187500.0, 0.04, -0.028, 1.002, 192.0, 1.0, 64.0, 255.0, 32.0, 31.0, 80.0, 0.0, 0.0, 0.0, 1.6953711883010163E9, 0.0, 2023-09-22 10:26:28.301
180.0, 7880.331025163058, 187500.0, -187500.02235174447, -187500.02235174447, 187500.0, -187500.02235174447, -187500.02235174447, 187500.0, 0.04, -0.028, 1.002, 192.0, 0.0, 0.0, 0.0, 0.0, 0.0, 0.0, 0.0, 0.0, 0.0, 1.6953711883010654E9, 0.0, 2023-09-22 10:26:28.301
181.0, 6775.886628137426, 187500.0, -187500.02235174447, -187500.02235174447, 187500.0, -187500.02235174447, -187500.02235174447, 187500.0, 0.04, -0.028, 1.002, 192.0, 0.0, 0.0, 0.0, 0.0, 0.0, 0.0, 0.0, 0.0, 0.0, 1.695371188301153E9, 0.0, 2023-09-22 10:26:28.301
182.0, 3705.6063062675366, 187500.0, -187500.02235174447, -187500.02235174447, 187500.0, -187500.02235174447, -187500.02235174447, 187500.0, 0.04, -0.028, 1.002, 192.0, 0.0, 0.0, 0.0, 0.0, 0.0, 0.0, 0.0, 0.0, 0.0, 1.6953711883011966E9, 0.0, 2023-09-22 10:26:28.301
183.0, 1167.8562960453387, 187500.0, -187500.02235174447, -187500.02235174447, 187500.0, -187500.02235174447, -187500.02235174447, 187500.0, 0.04, -0.028, 1.002, 192.0, 0.0, 0.0, 0.0, 0.0, 0.0, 0.0, 0.0, 0.0, 0.0, 1.6953711883012364E9, 0.0, 2023-09-22 10:26:28.301
184.0, -735.3500408351471, 187500.0, -187500.02235174447, -187500.02235174447, 187500.0, -187500.02235174447, -187500.02235174447, 187500.0, 0.04, -0.028, 1.002, 192.0, 0.0, 0.0, 0.0, 0.0, 0.0, 0.0, 0.0, 0.0, 0.0, 1.6953711883012743E9, 0.0, 2023-09-22 10:26:28.301
185.0, 310.30926827302795, 187500.0, -187500.02235174447, -187500.02235174447, 187500.0, -187500.02235174447, -187500.02235174447, 187500.0, 0.04, -0.028, 1.002, 192.0, 0.0, 0.0, 0.0, 0.0, 0.0, 0.0, 0.0, 0.0, 0.0, 1.6953711883013124E9, 0.0, 2023-09-22 10:26:28.301
