%OpenBCI Raw EXG Data
%Number of channels = 8
%Sample Rate = 250 Hz
%Board = OpenBCI_GUI$BoardCytonSerial
Sample Index, EXG Channel 0, EXG Channel 1, EXG Channel 2, EXG Channel 3, EXG Channel 4, EXG Channel 5, EXG Channel 6, EXG Channel 7, Accel Channel 0, Accel Channel 1, Accel Channel 2, Other, Other, Other, Other, Other, Other, Other, Analog Channel 0, Analog Channel 1, Analog Channel 2, Timestamp, Other, Timestamp (Formatted)
0.0, 0.0, 0.0, 0.0, 0.0, 0.0, 0.0, 0.0, 0.0, 0.038, -0.02, 1.0, 192.0, 1.0, 48.0, 255.0, 96.0, 31.0, 64.0, 0.0, 0.0, 0.0, 1.694681436487442E9, 0.0, 2023-09-14 10:50:36.487
1.0, -14.886261807234504, 187500.0, 187500.0, 187500.0, 187500.0, 187500.0, 187500.0, 187500.0, 0.038, -0.02, 1.0, 192.0, 0.0, 0.0, 0.0, 0.0, 0.0, 0.0, 0.0, 0.0, 0.0, 1.6946814365637696E9, 0.0, 2023-09-14 10:50:36.563
2.0, -10.415912916173092, 187500.0, 187500.0, 187500.0, 187500.0, 187500.0, 187500.0, 187500.0, 0.038, -0.02, 1.0, 192.0, 0.0, 0.0, 0.0, 0.0, 0.0, 0.0, 0.0, 0.0, 0.0, 1.6946814369845972E9, 0.0, 2023-09-14 10:50:36.984
3.0, -10.550023382904934, 187500.0, 187500.0, 187500.0, 187500.0, 187500.0, 187500.0, 187500.0, 0.038, -0.02, 1.0, 192.0, 0.0, 0.0, 0.0, 0.0, 0.0, 0.0, 0.0, 0.0, 0.0, 1.6946814369846938E9, 0.0, 2023-09-14 10:50:36.984
4.0, -15.601517629804329, 187500.0, 187500.0, 187500.0, 187500.0, 187500.0, 187500.0, 187500.0, 0.038, -0.02, 1.0, 192.0, 0.0, 0.0, 0.0, 0.0, 0.0, 0.0, 0.0, 0.0, 0.0, 1.6946814369848912E9, 0.0, 2023-09-14 10:50:36.984
5.0, -34.13111378325389, 187500.0, 187500.0, 187500.0, 187500.0, 187500.0, 187500.0, 187500.0, 0.038, -0.02, 1.0, 192.0, 0.0, 0.0, 0.0, 0.0, 0.0, 0.0, 0.0, 0.0, 0.0, 1.6946814369849412E9, 0.0, 2023-09-14 10:50:36.984
6.0, -37.90855859620078, 187500.0, 187500.0, 187500.0, 187500.0, 187500.0, 187500.0, 187500.0, 0.038, -0.02, 1.0, 192.0, 0.0, 0.0, 0.0, 0.0, 0.0, 0.0, 0.0, 0.0, 0.0, 1.6946814369849868E9, 0.0, 2023-09-14 10:50:36.984
7.0, -37.86385510729016, 187500.0, 187500.0, 187500.0, 187500.0, 187500.0, 187500.0, 187500.0, 0.038, -0.02, 1.0, 192.0, 0.0, 0.0, 0.0, 0.0, 0.0, 0.0, 0.0, 0.0, 0.0, 1.6946814369850287E9, 0.0, 2023-09-14 10:50:36.985
8.0, -33.28174749395222, 187500.0, 187500.0, 187500.0, 187500.0, 187500.0, 187500.0, 187500.0, 0.03, -0.026000000000000002, 1.002, 192.0, 0.0, 240.0, 255.0, 48.0, 31.0, 80.0, 0.0, 0.0, 0.0, 1.6946814369850662E9, 0.0, 2023-09-14 10:50:36.985
9.0, -14.796854829413276, 187500.0, 187500.0, 187500.0, 187500.0, 187500.0, 187500.0, 187500.0, 0.03, -0.026000000000000002, 1.002, 192.0, 0.0, 0.0, 0.0, 0.0, 0.0, 0.0, 0.0, 0.0, 0.0, 1.694681436985109E9, 0.0, 2023-09-14 10:50:36.985
10.0, -9.96887802706695, 187500.0, 187500.0, 187500.0, 187500.0, 187500.0, 187500.0, 187500.0, 0.03, -0.026000000000000002, 1.002, 192.0, 0.0, 0.0, 0.0, 0.0, 0.0, 0.0, 0.0, 0.0, 0.0, 1.6946814369851484E9, 0.0, 2023-09-14 10:50:36.985
11.0, -9.991229771522256, 187500.0, 187500.0, 187500.0, 187500.0, 187500.0, 187500.0, 187500.0, 0.03, -0.026000000000000002, 1.002, 192.0, 0.0, 0.0, 0.0, 0.0, 0.0, 0.0, 0.0, 0.0, 0.0, 1.6946814369851975E9, 0.0, 2023-09-14 10:50:36.985
12.0, -15.132130996242882, 187500.0, 187500.0, 187500.0, 187500.0, 187500.0, 187500.0, 187500.0, 0.03, -0.026000000000000002, 1.002, 192.0, 0.0, 0.0, 0.0, 0.0, 0.0, 0.0, 0.0, 0.0, 0.0, 1.6946814369852405E9, 0.0, 2023-09-14 10:50:36.985
13.0, -33.79583761642428, 187500.0, 187500.0, 187500.0, 187500.0, 187500.0, 187500.0, 187500.0, 0.03, -0.026000000000000002, 1.002, 192.0, 0.0, 0.0, 0.0, 0.0, 0.0, 0.0, 0.0, 0.0, 0.0, 1.694681436985284E9, 0.0, 2023-09-14 10:50:36.985
14.0, -38.08737255184324, 187500.0, 187500.0, 187500.0, 187500.0, 187500.0, 187500.0, 187500.0, 0.03, -0.026000000000000002, 1.002, 192.0, 0.0, 0.0, 0.0, 0.0, 0.0, 0.0, 0.0, 0.0, 0.0, 1.6946814369853315E9, 0.0, 2023-09-14 10:50:36.985
15.0, -38.04266906293262, 187500.0, 187500.0, 187500.0, 187500.0, 187500.0, 187500.0, 187500.0, 0.03, -0.026000000000000002, 1.002, 192.0, 0.0, 0.0, 0.0, 0.0, 0.0, 0.0, 0.0, 0.0, 0.0, 1.6946814369853773E9, 0.0, 2023-09-14 10:50:36.985
16.0, -32.901767838211995, 187500.0, 187500.0, 187500.0, 187500.0, 187500.0, 187500.0, 187500.0, 0.03, -0.026000000000000002, 1.002, 192.0, 0.0, 0.0, 0.0, 0.0, 0.0, 0.0, 0.0, 0.0, 0.0, 1.6946814369860115E9, 0.0, 2023-09-14 10:50:36.986
17.0, -14.68509610713674, 187500.0, 187500.0, 187500.0, 187500.0, 187500.0, 187500.0, 187500.0, 0.03, -0.026000000000000002, 1.002, 192.0, 0.0, 0.0, 0.0, 0.0, 0.0, 0.0, 0.0, 0.0, 0.0, 1.6946814369860575E9, 0.0, 2023-09-14 10:50:36.986
18.0, -10.326505938351863, 187500.0, 187500.0, 187500.0, 187500.0, 187500.0, 187500.0, 187500.0, 0.032, -0.02, 1.006, 192.0, 1.0, 0.0, 255.0, 96.0, 31.0, 112.0, 0.0, 0.0, 0.0, 1.6946814369861033E9, 0.0, 2023-09-14 10:50:36.986
19.0, -10.482968149539012, 187500.0, 187500.0, 187500.0, 187500.0, 187500.0, 187500.0, 187500.0, 0.032, -0.02, 1.006, 192.0, 0.0, 0.0, 0.0, 0.0, 0.0, 0.0, 0.0, 0.0, 0.0, 1.6946814369861493E9, 0.0, 2023-09-14 10:50:36.986
20.0, -15.109779251787574, 187500.0, 187500.0, 187500.0, 187500.0, 187500.0, 187500.0, 187500.0, 0.032, -0.02, 1.006, 192.0, 0.0, 0.0, 0.0, 0.0, 0.0, 0.0, 0.0, 0.0, 0.0, 1.6946814369862015E9, 0.0, 2023-09-14 10:50:36.986
21.0, -33.885244594245506, 187500.0, 187500.0, 187500.0, 187500.0, 187500.0, 187500.0, 187500.0, 0.032, -0.02, 1.006, 192.0, 0.0, 0.0, 0.0, 0.0, 0.0, 0.0, 0.0, 0.0, 0.0, 1.6946814369862423E9, 0.0, 2023-09-14 10:50:36.986
22.0, -38.19913127411977, 187500.0, 187500.0, 187500.0, 187500.0, 187500.0, 187500.0, 187500.0, 0.032, -0.02, 1.006, 192.0, 0.0, 0.0, 0.0, 0.0, 0.0, 0.0, 0.0, 0.0, 0.0, 1.6946814369862828E9, 0.0, 2023-09-14 10:50:36.986
23.0, -38.46735220758345, 187500.0, 187500.0, 187500.0, 187500.0, 187500.0, 187500.0, 187500.0, 0.032, -0.02, 1.006, 192.0, 0.0, 0.0, 0.0, 0.0, 0.0, 0.0, 0.0, 0.0, 0.0, 1.6946814369863284E9, 0.0, 2023-09-14 10:50:36.986
24.0, -33.72878238305836, 187500.0, 187500.0, 187500.0, 187500.0, 187500.0, 187500.0, 187500.0, 0.032, -0.02, 1.006, 192.0, 0.0, 0.0, 0.0, 0.0, 0.0, 0.0, 0.0, 0.0, 0.0, 1.6946814369863982E9, 0.0, 2023-09-14 10:50:36.986
25.0, -14.796854829413276, 187500.0, 187500.0, 187500.0, 187500.0, 187500.0, 187500.0, 187500.0, 0.032, -0.02, 1.006, 192.0, 0.0, 0.0, 0.0, 0.0, 0.0, 0.0, 0.0, 0.0, 0.0, 1.6946814369864304E9, 0.0, 2023-09-14 10:50:36.986
26.0, -10.326505938351863, 187500.0, 187500.0, 187500.0, 187500.0, 187500.0, 187500.0, 187500.0, 0.032, -0.02, 1.006, 192.0, 0.0, 0.0, 0.0, 0.0, 0.0, 0.0, 0.0, 0.0, 0.0, 1.6946814369864733E9, 0.0, 2023-09-14 10:50:36.986
27.0, -10.326505938351863, 187500.0, 187500.0, 187500.0, 187500.0, 187500.0, 187500.0, 187500.0, 0.034, -0.022, 1.006, 192.0, 1.0, 16.0, 255.0, 80.0, 31.0, 112.0, 0.0, 0.0, 0.0, 1.6946814369865117E9, 0.0, 2023-09-14 10:50:36.986
28.0, -14.908613551689811, 187500.0, 187500.0, 187500.0, 187500.0, 187500.0, 187500.0, 187500.0, 0.034, -0.022, 1.006, 192.0, 0.0, 0.0, 0.0, 0.0, 0.0, 0.0, 0.0, 0.0, 0.0, 1.6946814369865556E9, 0.0, 2023-09-14 10:50:36.986
29.0, -33.751134127513666, 187500.0, 187500.0, 187500.0, 187500.0, 187500.0, 187500.0, 187500.0, 0.034, -0.022, 1.006, 192.0, 0.0, 0.0, 0.0, 0.0, 0.0, 0.0, 0.0, 0.0, 0.0, 1.6946814369865885E9, 0.0, 2023-09-14 10:50:36.986
30.0, -38.26618650748569, 187500.0, 187500.0, 187500.0, 187500.0, 187500.0, 187500.0, 187500.0, 0.034, -0.022, 1.006, 192.0, 0.0, 0.0, 0.0, 0.0, 0.0, 0.0, 0.0, 0.0, 0.0, 1.6946814369866135E9, 0.0, 2023-09-14 10:50:36.986
31.0, -38.176779529664465, 187500.0, 187500.0, 187500.0, 187500.0, 187500.0, 187500.0, 187500.0, 0.034, -0.022, 1.006, 192.0, 0.0, 0.0, 0.0, 0.0, 0.0, 0.0, 0.0, 0.0, 0.0, 1.6946814369868317E9, 0.0, 2023-09-14 10:50:36.986
32.0, -33.34880272731814, 187500.0, 187500.0, 187500.0, 187500.0, 187500.0, 187500.0, 187500.0, 0.034, -0.022, 1.006, 192.0, 0.0, 0.0, 0.0, 0.0, 0.0, 0.0, 0.0, 0.0, 0.0, 1.694681436986858E9, 0.0, 2023-09-14 10:50:36.986
33.0, -14.841558318323889, 187500.0, 187500.0, 187500.0, 187500.0, 187500.0, 187500.0, 187500.0, 0.034, -0.022, 1.006, 192.0, 0.0, 0.0, 0.0, 0.0, 0.0, 0.0, 0.0, 0.0, 0.0, 1.6946814369868832E9, 0.0, 2023-09-14 10:50:36.986
34.0, -10.28180244944125, 187500.0, 187500.0, 187500.0, 187500.0, 187500.0, 187500.0, 187500.0, 0.034, -0.022, 1.006, 192.0, 0.0, 0.0, 0.0, 0.0, 0.0, 0.0, 0.0, 0.0, 0.0, 1.6946814369869075E9, 0.0, 2023-09-14 10:50:36.986
35.0, -9.991229771522256, 187500.0, 187500.0, 187500.0, 187500.0, 187500.0, 187500.0, 187500.0, 0.034, -0.022, 1.006, 192.0, 0.0, 0.0, 0.0, 0.0, 0.0, 0.0, 0.0, 0.0, 0.0, 1.694681436986932E9, 0.0, 2023-09-14 10:50:36.986
36.0, -15.020372273966347, 187500.0, 187500.0, 187500.0, 187500.0, 187500.0, 187500.0, 187500.0, 0.034, -0.022, 1.006, 192.0, 0.0, 0.0, 0.0, 0.0, 0.0, 0.0, 0.0, 0.0, 0.0, 1.6946814369869564E9, 0.0, 2023-09-14 10:50:36.986
37.0, -33.70643063860305, 187500.0, 187500.0, 187500.0, 187500.0, 187500.0, 187500.0, 187500.0, 0.038, -0.022, 1.004, 192.0, 1.0, 48.0, 255.0, 80.0, 31.0, 96.0, 0.0, 0.0, 0.0, 1.6946814369869807E9, 0.0, 2023-09-14 10:50:36.986
38.0, -38.19913127411977, 187500.0, 187500.0, 187500.0, 187500.0, 187500.0, 187500.0, 187500.0, 0.038, -0.022, 1.004, 192.0, 0.0, 0.0, 0.0, 0.0, 0.0, 0.0, 0.0, 0.0, 0.0, 1.6946814369870064E9, 0.0, 2023-09-14 10:50:36.987
39.0, -37.84150336283486, 187500.0, 187500.0, 187500.0, 187500.0, 187500.0, 187500.0, 187500.0, 0.038, -0.022, 1.004, 192.0, 0.0, 0.0, 0.0, 0.0, 0.0, 0.0, 0.0, 0.0, 0.0, 1.6946814369870305E9, 0.0, 2023-09-14 10:50:36.987
40.0, -33.10293353830976, 187500.0, 187500.0, 187500.0, 187500.0, 187500.0, 187500.0, 187500.0, 0.038, -0.022, 1.004, 192.0, 0.0, 0.0, 0.0, 0.0, 0.0, 0.0, 0.0, 0.0, 0.0, 1.6946814369870543E9, 0.0, 2023-09-14 10:50:36.987
41.0, -14.573337384860205, 187500.0, 187500.0, 187500.0, 187500.0, 187500.0, 187500.0, 187500.0, 0.038, -0.022, 1.004, 192.0, 0.0, 0.0, 0.0, 0.0, 0.0, 0.0, 0.0, 0.0, 0.0, 1.6946814369870784E9, 0.0, 2023-09-14 10:50:36.987
42.0, -10.304154193896556, 187500.0, 187500.0, 187500.0, 187500.0, 187500.0, 187500.0, 187500.0, 0.038, -0.022, 1.004, 192.0, 0.0, 0.0, 0.0, 0.0, 0.0, 0.0, 0.0, 0.0, 0.0, 1.6946814369871025E9, 0.0, 2023-09-14 10:50:36.987
43.0, -10.102988493798792, 187500.0, 187500.0, 187500.0, 187500.0, 187500.0, 187500.0, 187500.0, 0.038, -0.022, 1.004, 192.0, 0.0, 0.0, 0.0, 0.0, 0.0, 0.0, 0.0, 0.0, 0.0, 1.694681436987128E9, 0.0, 2023-09-14 10:50:36.987
44.0, -15.221537974064109, 187500.0, 187500.0, 187500.0, 187500.0, 187500.0, 187500.0, 187500.0, 0.038, -0.022, 1.004, 192.0, 0.0, 0.0, 0.0, 0.0, 0.0, 0.0, 0.0, 0.0, 0.0, 1.6946814369871695E9, 0.0, 2023-09-14 10:50:36.987
45.0, -34.01935506097735, 187500.0, 187500.0, 187500.0, 187500.0, 187500.0, 187500.0, 187500.0, 0.038, -0.022, 1.004, 192.0, 0.0, 0.0, 0.0, 0.0, 0.0, 0.0, 0.0, 0.0, 0.0, 1.6946814369872222E9, 0.0, 2023-09-14 10:50:36.987
46.0, -38.06502080738793, 187500.0, 187500.0, 187500.0, 187500.0, 187500.0, 187500.0, 187500.0, 0.038, -0.022, 1.004, 192.0, 0.0, 0.0, 0.0, 0.0, 0.0, 0.0, 0.0, 0.0, 0.0, 1.6946814369872649E9, 0.0, 2023-09-14 10:50:36.987
47.0, -37.90855859620078, 187500.0, 187500.0, 187500.0, 187500.0, 187500.0, 187500.0, 187500.0, 0.034, -0.02, 1.006, 192.0, 1.0, 16.0, 255.0, 96.0, 31.0, 112.0, 0.0, 0.0, 0.0, 1.6946814369874215E9, 0.0, 2023-09-14 10:50:36.987
48.0, -33.2146922605863, 187500.0, 187500.0, 187500.0, 187500.0, 187500.0, 187500.0, 187500.0, 0.034, -0.02, 1.006, 192.0, 0.0, 0.0, 0.0, 0.0, 0.0, 0.0, 0.0, 0.0, 0.0, 1.69468143698747E9, 0.0, 2023-09-14 10:50:36.987
49.0, -14.908613551689811, 187500.0, 187500.0, 187500.0, 187500.0, 187500.0, 187500.0, 187500.0, 0.034, -0.02, 1.006, 192.0, 0.0, 0.0, 0.0, 0.0, 0.0, 0.0, 0.0, 0.0, 0.0, 1.6946814369875128E9, 0.0, 2023-09-14 10:50:36.987
50.0, -10.505319893994319, 187500.0, 187500.0, 187500.0, 187500.0, 187500.0, 187500.0, 187500.0, 0.034, -0.02, 1.006, 192.0, 0.0, 0.0, 0.0, 0.0, 0.0, 0.0, 0.0, 0.0, 0.0, 1.694681436987556E9, 0.0, 2023-09-14 10:50:36.987
51.0, -10.035933260432872, 187500.0, 187500.0, 187500.0, 187500.0, 187500.0, 187500.0, 187500.0, 0.034, -0.02, 1.006, 192.0, 0.0, 0.0, 0.0, 0.0, 0.0, 0.0, 0.0, 0.0, 0.0, 1.694681436987598E9, 0.0, 2023-09-14 10:50:36.987
52.0, -15.221537974064109, 187500.0, 187500.0, 187500.0, 187500.0, 187500.0, 187500.0, 187500.0, 0.034, -0.02, 1.006, 192.0, 0.0, 0.0, 0.0, 0.0, 0.0, 0.0, 0.0, 0.0, 0.0, 1.6946814369876406E9, 0.0, 2023-09-14 10:50:36.987
53.0, -33.751134127513666, 187500.0, 187500.0, 187500.0, 187500.0, 187500.0, 187500.0, 187500.0, 0.034, -0.02, 1.006, 192.0, 0.0, 0.0, 0.0, 0.0, 0.0, 0.0, 0.0, 0.0, 0.0, 1.6946814369876816E9, 0.0, 2023-09-14 10:50:36.987
54.0, -37.930910340656084, 187500.0, 187500.0, 187500.0, 187500.0, 187500.0, 187500.0, 187500.0, 0.034, -0.02, 1.006, 192.0, 0.0, 0.0, 0.0, 0.0, 0.0, 0.0, 0.0, 0.0, 0.0, 1.694681436987768E9, 0.0, 2023-09-14 10:50:36.987
55.0, -37.90855859620078, 187500.0, 187500.0, 187500.0, 187500.0, 187500.0, 187500.0, 187500.0, 0.034, -0.02, 1.006, 192.0, 0.0, 0.0, 0.0, 0.0, 0.0, 0.0, 0.0, 0.0, 0.0, 1.6946814369878128E9, 0.0, 2023-09-14 10:50:36.987
56.0, -33.14763702722038, 187500.0, 187500.0, 187500.0, 187500.0, 187500.0, 187500.0, 187500.0, 0.034, -0.02, 1.006, 192.0, 0.0, 0.0, 0.0, 0.0, 0.0, 0.0, 0.0, 0.0, 0.0, 1.6946814369878547E9, 0.0, 2023-09-14 10:50:36.987
57.0, -14.68509610713674, 187500.0, 187500.0, 187500.0, 187500.0, 187500.0, 187500.0, 187500.0, 0.038, -0.016, 1.006, 192.0, 1.0, 48.0, 255.0, 128.0, 31.0, 112.0, 0.0, 0.0, 0.0, 1.6946814369878967E9, 0.0, 2023-09-14 10:50:36.987
58.0, -10.28180244944125, 187500.0, 187500.0, 187500.0, 187500.0, 187500.0, 187500.0, 187500.0, 0.038, -0.016, 1.006, 192.0, 0.0, 0.0, 0.0, 0.0, 0.0, 0.0, 0.0, 0.0, 0.0, 1.6946814369879391E9, 0.0, 2023-09-14 10:50:36.987
59.0, -10.326505938351863, 187500.0, 187500.0, 187500.0, 187500.0, 187500.0, 187500.0, 187500.0, 0.038, -0.016, 1.006, 192.0, 0.0, 0.0, 0.0, 0.0, 0.0, 0.0, 0.0, 0.0, 0.0, 1.694681436987978E9, 0.0, 2023-09-14 10:50:36.987
60.0, -15.310944951885338, 187500.0, 187500.0, 187500.0, 187500.0, 187500.0, 187500.0, 187500.0, 0.038, -0.016, 1.006, 192.0, 0.0, 0.0, 0.0, 0.0, 0.0, 0.0, 0.0, 0.0, 0.0, 1.6946814369880152E9, 0.0, 2023-09-14 10:50:36.988
61.0, -33.92994808315612, 187500.0, 187500.0, 187500.0, 187500.0, 187500.0, 187500.0, 187500.0, 0.038, -0.016, 1.006, 192.0, 0.0, 0.0, 0.0, 0.0, 0.0, 0.0, 0.0, 0.0, 0.0, 1.6946814369880676E9, 0.0, 2023-09-14 10:50:36.988
62.0, -38.377945229762226, 187500.0, 187500.0, 187500.0, 187500.0, 187500.0, 187500.0, 187500.0, 0.038, -0.016, 1.006, 192.0, 0.0, 0.0, 0.0, 0.0, 0.0, 0.0, 0.0, 0.0, 0.0, 1.6946814369882774E9, 0.0, 2023-09-14 10:50:36.988
63.0, -38.288538251941, 187500.0, 187500.0, 187500.0, 187500.0, 187500.0, 187500.0, 187500.0, 0.038, -0.016, 1.006, 192.0, 0.0, 0.0, 0.0, 0.0, 0.0, 0.0, 0.0, 0.0, 0.0, 1.694681436988304E9, 0.0, 2023-09-14 10:50:36.988
64.0, -33.438209705139364, 187500.0, 187500.0, 187500.0, 187500.0, 187500.0, 187500.0, 187500.0, 0.038, -0.016, 1.006, 192.0, 0.0, 0.0, 0.0, 0.0, 0.0, 0.0, 0.0, 0.0, 0.0, 1.6946814369883285E9, 0.0, 2023-09-14 10:50:36.988
65.0, -14.506282151494284, 187500.0, 187500.0, 187500.0, 187500.0, 187500.0, 187500.0, 187500.0, 0.038, -0.016, 1.006, 192.0, 0.0, 0.0, 0.0, 0.0, 0.0, 0.0, 0.0, 0.0, 0.0, 1.6946814369883528E9, 0.0, 2023-09-14 10:50:36.988
66.0, -9.790064071424494, 187500.0, 187500.0, 187500.0, 187500.0, 187500.0, 187500.0, 187500.0, 0.038, -0.016, 1.006, 192.0, 0.0, 0.0, 0.0, 0.0, 0.0, 0.0, 0.0, 0.0, 0.0, 1.694681436988385E9, 0.0, 2023-09-14 10:50:36.988
67.0, -9.924174538156336, 187500.0, 187500.0, 187500.0, 187500.0, 187500.0, 187500.0, 187500.0, 0.04, -0.016, 1.004, 192.0, 1.0, 64.0, 255.0, 128.0, 31.0, 96.0, 0.0, 0.0, 0.0, 1.6946814369884093E9, 0.0, 2023-09-14 10:50:36.988
68.0, -15.154482740698189, 187500.0, 187500.0, 187500.0, 187500.0, 187500.0, 187500.0, 187500.0, 0.04, -0.016, 1.004, 192.0, 0.0, 0.0, 0.0, 0.0, 0.0, 0.0, 0.0, 0.0, 0.0, 1.694681436988443E9, 0.0, 2023-09-14 10:50:36.988
69.0, -33.617023660781825, 187500.0, 187500.0, 187500.0, 187500.0, 187500.0, 187500.0, 187500.0, 0.04, -0.016, 1.004, 192.0, 0.0, 0.0, 0.0, 0.0, 0.0, 0.0, 0.0, 0.0, 0.0, 1.6946814369884973E9, 0.0, 2023-09-14 10:50:36.988
70.0, -37.707392896103016, 187500.0, 187500.0, 187500.0, 187500.0, 187500.0, 187500.0, 187500.0, 0.04, -0.016, 1.004, 192.0, 0.0, 0.0, 0.0, 0.0, 0.0, 0.0, 0.0, 0.0, 0.0, 1.6946814369885483E9, 0.0, 2023-09-14 10:50:36.988
71.0, -37.930910340656084, 187500.0, 187500.0, 187500.0, 187500.0, 187500.0, 187500.0, 187500.0, 0.04, -0.016, 1.004, 192.0, 0.0, 0.0, 0.0, 0.0, 0.0, 0.0, 0.0, 0.0, 0.0, 1.6946814369885802E9, 0.0, 2023-09-14 10:50:36.988
72.0, -33.10293353830976, 187500.0, 187500.0, 187500.0, 187500.0, 187500.0, 187500.0, 187500.0, 0.04, -0.016, 1.004, 192.0, 0.0, 0.0, 0.0, 0.0, 0.0, 0.0, 0.0, 0.0, 0.0, 1.6946814369886043E9, 0.0, 2023-09-14 10:50:36.988
73.0, -14.908613551689811, 187500.0, 187500.0, 187500.0, 187500.0, 187500.0, 187500.0, 187500.0, 0.04, -0.016, 1.004, 192.0, 0.0, 0.0, 0.0, 0.0, 0.0, 0.0, 0.0, 0.0, 0.0, 1.6946814369886286E9, 0.0, 2023-09-14 10:50:36.988
74.0, -10.482968149539012, 187500.0, 187500.0, 187500.0, 187500.0, 187500.0, 187500.0, 187500.0, 0.04, -0.016, 1.004, 192.0, 0.0, 0.0, 0.0, 0.0, 0.0, 0.0, 0.0, 0.0, 0.0, 1.6946814369886534E9, 0.0, 2023-09-14 10:50:36.988
75.0, -10.013581515977563, 187500.0, 187500.0, 187500.0, 187500.0, 187500.0, 187500.0, 187500.0, 0.04, -0.016, 1.004, 192.0, 0.0, 0.0, 0.0, 0.0, 0.0, 0.0, 0.0, 0.0, 0.0, 1.6946814369886775E9, 0.0, 2023-09-14 10:50:36.988
76.0, -14.99802052951104, 187500.0, 187500.0, 187500.0, 187500.0, 187500.0, 187500.0, 187500.0, 0.04, -0.016, 1.004, 192.0, 0.0, 0.0, 0.0, 0.0, 0.0, 0.0, 0.0, 0.0, 0.0, 1.6946814369887016E9, 0.0, 2023-09-14 10:50:36.988
77.0, -34.01935506097735, 187500.0, 187500.0, 187500.0, 187500.0, 187500.0, 187500.0, 187500.0, 0.036000000000000004, -0.022, 1.002, 192.0, 1.0, 32.0, 255.0, 80.0, 31.0, 80.0, 0.0, 0.0, 0.0, 1.6946814369887867E9, 0.0, 2023-09-14 10:50:36.988
78.0, -38.22148301857508, 187500.0, 187500.0, 187500.0, 187500.0, 187500.0, 187500.0, 187500.0, 0.036000000000000004, -0.022, 1.002, 192.0, 0.0, 0.0, 0.0, 0.0, 0.0, 0.0, 0.0, 0.0, 0.0, 1.6946814369888136E9, 0.0, 2023-09-14 10:50:36.988
79.0, -38.02031731847731, 187500.0, 187500.0, 187500.0, 187500.0, 187500.0, 187500.0, 187500.0, 0.036000000000000004, -0.022, 1.002, 192.0, 0.0, 0.0, 0.0, 0.0, 0.0, 0.0, 0.0, 0.0, 0.0, 1.6946814369888377E9, 0.0, 2023-09-14 10:50:36.988
80.0, -33.10293353830976, 187500.0, 187500.0, 187500.0, 187500.0, 187500.0, 187500.0, 187500.0, 0.036000000000000004, -0.022, 1.002, 192.0, 0.0, 0.0, 0.0, 0.0, 0.0, 0.0, 0.0, 0.0, 0.0, 1.6946814369888616E9, 0.0, 2023-09-14 10:50:36.988
81.0, -14.439226918128362, 187500.0, 187500.0, 187500.0, 187500.0, 187500.0, 187500.0, 187500.0, 0.036000000000000004, -0.022, 1.002, 192.0, 0.0, 0.0, 0.0, 0.0, 0.0, 0.0, 0.0, 0.0, 0.0, 1.6946814369888854E9, 0.0, 2023-09-14 10:50:36.988
82.0, -10.214747216075327, 187500.0, 187500.0, 187500.0, 187500.0, 187500.0, 187500.0, 187500.0, 0.036000000000000004, -0.022, 1.002, 192.0, 0.0, 0.0, 0.0, 0.0, 0.0, 0.0, 0.0, 0.0, 0.0, 1.6946814369889092E9, 0.0, 2023-09-14 10:50:36.988
83.0, -10.080636749343485, 187500.0, 187500.0, 187500.0, 187500.0, 187500.0, 187500.0, 187500.0, 0.036000000000000004, -0.022, 1.002, 192.0, 0.0, 0.0, 0.0, 0.0, 0.0, 0.0, 0.0, 0.0, 0.0, 1.6946814369889336E9, 0.0, 2023-09-14 10:50:36.988
84.0, -15.176834485153496, 187500.0, 187500.0, 187500.0, 187500.0, 187500.0, 187500.0, 187500.0, 0.036000000000000004, -0.022, 1.002, 192.0, 0.0, 0.0, 0.0, 0.0, 0.0, 0.0, 0.0, 0.0, 0.0, 1.6946814369889576E9, 0.0, 2023-09-14 10:50:36.988
85.0, -33.90759633870081, 187500.0, 187500.0, 187500.0, 187500.0, 187500.0, 187500.0, 187500.0, 0.036000000000000004, -0.022, 1.002, 192.0, 0.0, 0.0, 0.0, 0.0, 0.0, 0.0, 0.0, 0.0, 0.0, 1.694681436988982E9, 0.0, 2023-09-14 10:50:36.988
86.0, -38.310889996396305, 187500.0, 187500.0, 187500.0, 187500.0, 187500.0, 187500.0, 187500.0, 0.036000000000000004, -0.022, 1.002, 192.0, 0.0, 0.0, 0.0, 0.0, 0.0, 0.0, 0.0, 0.0, 0.0, 1.6946814369890063E9, 0.0, 2023-09-14 10:50:36.989
87.0, -37.9756138295667, 187500.0, 187500.0, 187500.0, 187500.0, 187500.0, 187500.0, 187500.0, 0.036000000000000004, -0.022, 1.004, 192.0, 1.0, 32.0, 255.0, 80.0, 31.0, 96.0, 0.0, 0.0, 0.0, 1.6946814369890308E9, 0.0, 2023-09-14 10:50:36.989
88.0, -33.16998877167568, 187500.0, 187500.0, 187500.0, 187500.0, 187500.0, 187500.0, 187500.0, 0.036000000000000004, -0.022, 1.004, 192.0, 0.0, 0.0, 0.0, 0.0, 0.0, 0.0, 0.0, 0.0, 0.0, 1.6946814369890628E9, 0.0, 2023-09-14 10:50:36.989
89.0, -14.796854829413276, 187500.0, 187500.0, 187500.0, 187500.0, 187500.0, 187500.0, 187500.0, 0.036000000000000004, -0.022, 1.004, 192.0, 0.0, 0.0, 0.0, 0.0, 0.0, 0.0, 0.0, 0.0, 0.0, 1.6946814369890866E9, 0.0, 2023-09-14 10:50:36.989
90.0, -10.214747216075327, 187500.0, 187500.0, 187500.0, 187500.0, 187500.0, 187500.0, 187500.0, 0.036000000000000004, -0.022, 1.004, 192.0, 0.0, 0.0, 0.0, 0.0, 0.0, 0.0, 0.0, 0.0, 0.0, 1.6946814369891105E9, 0.0, 2023-09-14 10:50:36.989
91.0, -10.259450704985941, 187500.0, 187500.0, 187500.0, 187500.0, 187500.0, 187500.0, 187500.0, 0.036000000000000004, -0.022, 1.004, 192.0, 0.0, 0.0, 0.0, 0.0, 0.0, 0.0, 0.0, 0.0, 0.0, 1.6946814369891353E9, 0.0, 2023-09-14 10:50:36.989
92.0, -15.243889718519418, 187500.0, 187500.0, 187500.0, 187500.0, 187500.0, 187500.0, 187500.0, 0.036000000000000004, -0.022, 1.004, 192.0, 0.0, 0.0, 0.0, 0.0, 0.0, 0.0, 0.0, 0.0, 0.0, 1.694681436989159E9, 0.0, 2023-09-14 10:50:36.989
93.0, -34.13111378325389, 187500.0, 187500.0, 187500.0, 187500.0, 187500.0, 187500.0, 187500.0, 0.036000000000000004, -0.022, 1.004, 192.0, 0.0, 0.0, 0.0, 0.0, 0.0, 0.0, 0.0, 0.0, 0.0, 1.6946814369892185E9, 0.0, 2023-09-14 10:50:36.989
94.0, -38.08737255184324, 187500.0, 187500.0, 187500.0, 187500.0, 187500.0, 187500.0, 187500.0, 0.036000000000000004, -0.022, 1.004, 192.0, 0.0, 0.0, 0.0, 0.0, 0.0, 0.0, 0.0, 0.0, 0.0, 1.694681436989243E9, 0.0, 2023-09-14 10:50:36.989
95.0, -38.06502080738793, 187500.0, 187500.0, 187500.0, 187500.0, 187500.0, 187500.0, 187500.0, 0.036000000000000004, -0.022, 1.004, 192.0, 0.0, 0.0, 0.0, 0.0, 0.0, 0.0, 0.0, 0.0, 0.0, 1.694681436989267E9, 0.0, 2023-09-14 10:50:36.989
96.0, -33.237044005041604, 187500.0, 187500.0, 187500.0, 187500.0, 187500.0, 187500.0, 187500.0, 0.036000000000000004, -0.022, 1.004, 192.0, 0.0, 0.0, 0.0, 0.0, 0.0, 0.0, 0.0, 0.0, 0.0, 1.6946814369892917E9, 0.0, 2023-09-14 10:50:36.989
97.0, -14.796854829413276, 187500.0, 187500.0, 187500.0, 187500.0, 187500.0, 187500.0, 187500.0, 0.032, -0.018000000000000002, 1.0, 192.0, 1.0, 0.0, 255.0, 112.0, 31.0, 64.0, 0.0, 0.0, 0.0, 1.694681436989316E9, 0.0, 2023-09-14 10:50:36.989
98.0, -10.147691982709407, 187500.0, 187500.0, 187500.0, 187500.0, 187500.0, 187500.0, 187500.0, 0.032, -0.018000000000000002, 1.0, 192.0, 0.0, 0.0, 0.0, 0.0, 0.0, 0.0, 0.0, 0.0, 0.0, 1.694681436989342E9, 0.0, 2023-09-14 10:50:36.989
99.0, -10.326505938351863, 187500.0, 187500.0, 187500.0, 187500.0, 187500.0, 187500.0, 187500.0, 0.032, -0.018000000000000002, 1.0, 192.0, 0.0, 0.0, 0.0, 0.0, 0.0, 0.0, 0.0, 0.0, 0.0, 1.6946814369893663E9, 0.0, 2023-09-14 10:50:36.989
100.0, -15.467407163072487, 187500.0, 187500.0, 187500.0, 187500.0, 187500.0, 187500.0, 187500.0, 0.032, -0.018000000000000002, 1.0, 192.0, 0.0, 0.0, 0.0, 0.0, 0.0, 0.0, 0.0, 0.0, 0.0, 1.694681436989391E9, 0.0, 2023-09-14 10:50:36.989
101.0, -33.8628928497902, 187500.0, 187500.0, 187500.0, 187500.0, 187500.0, 187500.0, 187500.0, 0.032, -0.018000000000000002, 1.0, 192.0, 0.0, 0.0, 0.0, 0.0, 0.0, 0.0, 0.0, 0.0, 0.0, 1.694681436989416E9, 0.0, 2023-09-14 10:50:36.989
102.0, -38.243834763030385, 187500.0, 187500.0, 187500.0, 187500.0, 187500.0, 187500.0, 187500.0, 0.032, -0.018000000000000002, 1.0, 192.0, 0.0, 0.0, 0.0, 0.0, 0.0, 0.0, 0.0, 0.0, 0.0, 1.6946814369894476E9, 0.0, 2023-09-14 10:50:36.989
103.0, -38.08737255184324, 187500.0, 187500.0, 187500.0, 187500.0, 187500.0, 187500.0, 187500.0, 0.032, -0.018000000000000002, 1.0, 192.0, 0.0, 0.0, 0.0, 0.0, 0.0, 0.0, 0.0, 0.0, 0.0, 1.6946814369894943E9, 0.0, 2023-09-14 10:50:36.989
104.0, -33.237044005041604, 187500.0, 187500.0, 187500.0, 187500.0, 187500.0, 187500.0, 187500.0, 0.032, -0.018000000000000002, 1.0, 192.0, 0.0, 0.0, 0.0, 0.0, 0.0, 0.0, 0.0, 0.0, 0.0, 1.6946814369895225E9, 0.0, 2023-09-14 10:50:36.989
105.0, -14.796854829413276, 187500.0, 187500.0, 187500.0, 187500.0, 187500.0, 187500.0, 187500.0, 0.032, -0.018000000000000002, 1.0, 192.0, 0.0, 0.0, 0.0, 0.0, 0.0, 0.0, 0.0, 0.0, 0.0, 1.6946814369895473E9, 0.0, 2023-09-14 10:50:36.989
106.0, -10.214747216075327, 187500.0, 187500.0, 187500.0, 187500.0, 187500.0, 187500.0, 187500.0, 0.032, -0.018000000000000002, 1.0, 192.0, 0.0, 0.0, 0.0, 0.0, 0.0, 0.0, 0.0, 0.0, 0.0, 1.694681436989571E9, 0.0, 2023-09-14 10:50:36.989
107.0, -10.147691982709407, 187500.0, 187500.0, 187500.0, 187500.0, 187500.0, 187500.0, 187500.0, 0.03, -0.02, 1.0, 192.0, 0.0, 240.0, 255.0, 96.0, 31.0, 64.0, 0.0, 0.0, 0.0, 1.6946814369895952E9, 0.0, 2023-09-14 10:50:36.989
108.0, -15.534462396438409, 187500.0, 187500.0, 187500.0, 187500.0, 187500.0, 187500.0, 187500.0, 0.03, -0.02, 1.0, 192.0, 0.0, 0.0, 0.0, 0.0, 0.0, 0.0, 0.0, 0.0, 0.0, 1.69468143698968E9, 0.0, 2023-09-14 10:50:36.989
109.0, -33.97465157206673, 187500.0, 187500.0, 187500.0, 187500.0, 187500.0, 187500.0, 187500.0, 0.03, -0.02, 1.0, 192.0, 0.0, 0.0, 0.0, 0.0, 0.0, 0.0, 0.0, 0.0, 0.0, 1.6946814369897096E9, 0.0, 2023-09-14 10:50:36.989
110.0, -38.22148301857508, 187500.0, 187500.0, 187500.0, 187500.0, 187500.0, 187500.0, 187500.0, 0.03, -0.02, 1.0, 192.0, 0.0, 0.0, 0.0, 0.0, 0.0, 0.0, 0.0, 0.0, 0.0, 1.6946814369897356E9, 0.0, 2023-09-14 10:50:36.989
111.0, -38.35559348530692, 187500.0, 187500.0, 187500.0, 187500.0, 187500.0, 187500.0, 187500.0, 0.03, -0.02, 1.0, 192.0, 0.0, 0.0, 0.0, 0.0, 0.0, 0.0, 0.0, 0.0, 0.0, 1.6946814369897597E9, 0.0, 2023-09-14 10:50:36.989
112.0, -33.66172714969244, 187500.0, 187500.0, 187500.0, 187500.0, 187500.0, 187500.0, 187500.0, 0.03, -0.02, 1.0, 192.0, 0.0, 0.0, 0.0, 0.0, 0.0, 0.0, 0.0, 0.0, 0.0, 1.694681436989784E9, 0.0, 2023-09-14 10:50:36.989
113.0, -14.439226918128362, 187500.0, 187500.0, 187500.0, 187500.0, 187500.0, 187500.0, 187500.0, 0.03, -0.02, 1.0, 192.0, 0.0, 0.0, 0.0, 0.0, 0.0, 0.0, 0.0, 0.0, 0.0, 1.694681436989808E9, 0.0, 2023-09-14 10:50:36.989
114.0, -10.125340238254099, 187500.0, 187500.0, 187500.0, 187500.0, 187500.0, 187500.0, 187500.0, 0.03, -0.02, 1.0, 192.0, 0.0, 0.0, 0.0, 0.0, 0.0, 0.0, 0.0, 0.0, 0.0, 1.694681436989832E9, 0.0, 2023-09-14 10:50:36.989
115.0, -10.304154193896556, 187500.0, 187500.0, 187500.0, 187500.0, 187500.0, 187500.0, 187500.0, 0.03, -0.02, 1.0, 192.0, 0.0, 0.0, 0.0, 0.0, 0.0, 0.0, 0.0, 0.0, 0.0, 1.694681436989856E9, 0.0, 2023-09-14 10:50:36.989
116.0, -15.221537974064109, 187500.0, 187500.0, 187500.0, 187500.0, 187500.0, 187500.0, 187500.0, 0.03, -0.02, 1.0, 192.0, 0.0, 0.0, 0.0, 0.0, 0.0, 0.0, 0.0, 0.0, 0.0, 1.6946814369898798E9, 0.0, 2023-09-14 10:50:36.989
117.0, -34.06405854988796, 187500.0, 187500.0, 187500.0, 187500.0, 187500.0, 187500.0, 187500.0, 0.036000000000000004, -0.024, 0.996, 192.0, 1.0, 32.0, 255.0, 64.0, 31.0, 32.0, 0.0, 0.0, 0.0, 1.694681436989904E9, 0.0, 2023-09-14 10:50:36.989
118.0, -38.48970395203876, 187500.0, 187500.0, 187500.0, 187500.0, 187500.0, 187500.0, 187500.0, 0.036000000000000004, -0.024, 0.996, 192.0, 0.0, 0.0, 0.0, 0.0, 0.0, 0.0, 0.0, 0.0, 0.0, 1.69468143698993E9, 0.0, 2023-09-14 10:50:36.989
119.0, -38.15442778520916, 187500.0, 187500.0, 187500.0, 187500.0, 187500.0, 187500.0, 187500.0, 0.036000000000000004, -0.024, 0.996, 192.0, 0.0, 0.0, 0.0, 0.0, 0.0, 0.0, 0.0, 0.0, 0.0, 1.6946814369899545E9, 0.0, 2023-09-14 10:50:36.989
120.0, -33.19234051613099, 187500.0, 187500.0, 187500.0, 187500.0, 187500.0, 187500.0, 187500.0, 0.036000000000000004, -0.024, 0.996, 192.0, 0.0, 0.0, 0.0, 0.0, 0.0, 0.0, 0.0, 0.0, 0.0, 1.6946814369899793E9, 0.0, 2023-09-14 10:50:36.989
121.0, -14.550985640404898, 187500.0, 187500.0, 187500.0, 187500.0, 187500.0, 187500.0, 187500.0, 0.036000000000000004, -0.024, 0.996, 192.0, 0.0, 0.0, 0.0, 0.0, 0.0, 0.0, 0.0, 0.0, 0.0, 1.6946814369900036E9, 0.0, 2023-09-14 10:50:36.990
122.0, -10.147691982709407, 187500.0, 187500.0, 187500.0, 187500.0, 187500.0, 187500.0, 187500.0, 0.036000000000000004, -0.024, 0.996, 192.0, 0.0, 0.0, 0.0, 0.0, 0.0, 0.0, 0.0, 0.0, 0.0, 1.6946814374653025E9, 0.0, 2023-09-14 10:50:37.465
123.0, -10.304154193896556, 187500.0, 187500.0, 187500.0, 187500.0, 187500.0, 187500.0, 187500.0, 0.036000000000000004, -0.024, 0.996, 192.0, 0.0, 0.0, 0.0, 0.0, 0.0, 0.0, 0.0, 0.0, 0.0, 1.694681437465547E9, 0.0, 2023-09-14 10:50:37.465
124.0, -15.176834485153496, 187500.0, 187500.0, 187500.0, 187500.0, 187500.0, 187500.0, 187500.0, 0.036000000000000004, -0.024, 0.996, 192.0, 0.0, 0.0, 0.0, 0.0, 0.0, 0.0, 0.0, 0.0, 0.0, 1.6946814374655967E9, 0.0, 2023-09-14 10:50:37.465
125.0, -33.438209705139364, 187500.0, 187500.0, 187500.0, 187500.0, 187500.0, 187500.0, 187500.0, 0.036000000000000004, -0.024, 0.996, 192.0, 0.0, 0.0, 0.0, 0.0, 0.0, 0.0, 0.0, 0.0, 0.0, 1.69468143746564E9, 0.0, 2023-09-14 10:50:37.465
126.0, -37.90855859620078, 187500.0, 187500.0, 187500.0, 187500.0, 187500.0, 187500.0, 187500.0, 0.036000000000000004, -0.024, 0.996, 192.0, 0.0, 0.0, 0.0, 0.0, 0.0, 0.0, 0.0, 0.0, 0.0, 1.6946814374656825E9, 0.0, 2023-09-14 10:50:37.465
127.0, -37.86385510729016, 187500.0, 187500.0, 187500.0, 187500.0, 187500.0, 187500.0, 187500.0, 0.034, -0.022, 0.998, 192.0, 1.0, 16.0, 255.0, 80.0, 31.0, 48.0, 0.0, 0.0, 0.0, 1.6946814374657247E9, 0.0, 2023-09-14 10:50:37.465
128.0, -33.16998877167568, 187500.0, 187500.0, 187500.0, 187500.0, 187500.0, 187500.0, 187500.0, 0.034, -0.022, 0.998, 192.0, 0.0, 0.0, 0.0, 0.0, 0.0, 0.0, 0.0, 0.0, 0.0, 1.6946814374657707E9, 0.0, 2023-09-14 10:50:37.465
129.0, -14.439226918128362, 187500.0, 187500.0, 187500.0, 187500.0, 187500.0, 187500.0, 187500.0, 0.034, -0.022, 0.998, 192.0, 0.0, 0.0, 0.0, 0.0, 0.0, 0.0, 0.0, 0.0, 0.0, 1.6946814374658155E9, 0.0, 2023-09-14 10:50:37.465
130.0, -10.147691982709407, 187500.0, 187500.0, 187500.0, 187500.0, 187500.0, 187500.0, 187500.0, 0.034, -0.022, 0.998, 192.0, 0.0, 0.0, 0.0, 0.0, 0.0, 0.0, 0.0, 0.0, 0.0, 1.6946814374658592E9, 0.0, 2023-09-14 10:50:37.465
131.0, -10.19239547162002, 187500.0, 187500.0, 187500.0, 187500.0, 187500.0, 187500.0, 187500.0, 0.034, -0.022, 0.998, 192.0, 0.0, 0.0, 0.0, 0.0, 0.0, 0.0, 0.0, 0.0, 0.0, 1.6946814374659019E9, 0.0, 2023-09-14 10:50:37.465
132.0, -15.44505541861718, 187500.0, 187500.0, 187500.0, 187500.0, 187500.0, 187500.0, 187500.0, 0.034, -0.022, 0.998, 192.0, 0.0, 0.0, 0.0, 0.0, 0.0, 0.0, 0.0, 0.0, 0.0, 1.6946814374659443E9, 0.0, 2023-09-14 10:50:37.465
133.0, -33.90759633870081, 187500.0, 187500.0, 187500.0, 187500.0, 187500.0, 187500.0, 187500.0, 0.034, -0.022, 0.998, 192.0, 0.0, 0.0, 0.0, 0.0, 0.0, 0.0, 0.0, 0.0, 0.0, 1.6946814374659867E9, 0.0, 2023-09-14 10:50:37.465
134.0, -38.04266906293262, 187500.0, 187500.0, 187500.0, 187500.0, 187500.0, 187500.0, 187500.0, 0.034, -0.022, 0.998, 192.0, 0.0, 0.0, 0.0, 0.0, 0.0, 0.0, 0.0, 0.0, 0.0, 1.6946814374660294E9, 0.0, 2023-09-14 10:50:37.466
135.0, -37.997965574022004, 187500.0, 187500.0, 187500.0, 187500.0, 187500.0, 187500.0, 187500.0, 0.034, -0.022, 0.998, 192.0, 0.0, 0.0, 0.0, 0.0, 0.0, 0.0, 0.0, 0.0, 0.0, 1.6946814374660711E9, 0.0, 2023-09-14 10:50:37.466
136.0, -32.9241195826673, 187500.0, 187500.0, 187500.0, 187500.0, 187500.0, 187500.0, 187500.0, 0.034, -0.02, 0.998, 192.0, 1.0, 16.0, 255.0, 96.0, 31.0, 48.0, 0.0, 0.0, 0.0, 1.694681437466114E9, 0.0, 2023-09-14 10:50:37.466
137.0, -14.416875173673056, 187500.0, 187500.0, 187500.0, 187500.0, 187500.0, 187500.0, 187500.0, 0.034, -0.02, 0.998, 192.0, 0.0, 0.0, 0.0, 0.0, 0.0, 0.0, 0.0, 0.0, 0.0, 1.6946814374661589E9, 0.0, 2023-09-14 10:50:37.466
138.0, -10.438264660628398, 187500.0, 187500.0, 187500.0, 187500.0, 187500.0, 187500.0, 187500.0, 0.034, -0.02, 0.998, 192.0, 0.0, 0.0, 0.0, 0.0, 0.0, 0.0, 0.0, 0.0, 0.0, 1.6946814374662E9, 0.0, 2023-09-14 10:50:37.466
139.0, -10.304154193896556, 187500.0, 187500.0, 187500.0, 187500.0, 187500.0, 187500.0, 187500.0, 0.034, -0.02, 0.998, 192.0, 0.0, 0.0, 0.0, 0.0, 0.0, 0.0, 0.0, 0.0, 0.0, 1.6946814374664252E9, 0.0, 2023-09-14 10:50:37.466
140.0, -15.333296696340645, 187500.0, 187500.0, 187500.0, 187500.0, 187500.0, 187500.0, 187500.0, 0.034, -0.02, 0.998, 192.0, 0.0, 0.0, 0.0, 0.0, 0.0, 0.0, 0.0, 0.0, 0.0, 1.6946814374664664E9, 0.0, 2023-09-14 10:50:37.466
141.0, -33.95229982761143, 187500.0, 187500.0, 187500.0, 187500.0, 187500.0, 187500.0, 187500.0, 0.034, -0.02, 0.998, 192.0, 0.0, 0.0, 0.0, 0.0, 0.0, 0.0, 0.0, 0.0, 0.0, 1.6946814374665089E9, 0.0, 2023-09-14 10:50:37.466
142.0, -38.26618650748569, 187500.0, 187500.0, 187500.0, 187500.0, 187500.0, 187500.0, 187500.0, 0.034, -0.02, 0.998, 192.0, 0.0, 0.0, 0.0, 0.0, 0.0, 0.0, 0.0, 0.0, 0.0, 1.6946814374665475E9, 0.0, 2023-09-14 10:50:37.466
143.0, -38.176779529664465, 187500.0, 187500.0, 187500.0, 187500.0, 187500.0, 187500.0, 187500.0, 0.034, -0.02, 0.998, 192.0, 0.0, 0.0, 0.0, 0.0, 0.0, 0.0, 0.0, 0.0, 0.0, 1.6946814374665854E9, 0.0, 2023-09-14 10:50:37.466
144.0, -33.52761668296059, 187500.0, 187500.0, 187500.0, 187500.0, 187500.0, 187500.0, 187500.0, 0.034, -0.02, 0.998, 192.0, 0.0, 0.0, 0.0, 0.0, 0.0, 0.0, 0.0, 0.0, 0.0, 1.6946814374666235E9, 0.0, 2023-09-14 10:50:37.466
145.0, -14.640392618226127, 187500.0, 187500.0, 187500.0, 187500.0, 187500.0, 187500.0, 187500.0, 0.034, -0.02, 0.998, 192.0, 0.0, 0.0, 0.0, 0.0, 0.0, 0.0, 0.0, 0.0, 0.0, 1.6946814374666615E9, 0.0, 2023-09-14 10:50:37.466
146.0, -10.080636749343485, 187500.0, 187500.0, 187500.0, 187500.0, 187500.0, 187500.0, 187500.0, 0.036000000000000004, -0.018000000000000002, 1.0, 192.0, 1.0, 32.0, 255.0, 112.0, 31.0, 64.0, 0.0, 0.0, 0.0, 1.6946814374667006E9, 0.0, 2023-09-14 10:50:37.466
147.0, -10.259450704985941, 187500.0, 187500.0, 187500.0, 187500.0, 187500.0, 187500.0, 187500.0, 0.036000000000000004, -0.018000000000000002, 1.0, 192.0, 0.0, 0.0, 0.0, 0.0, 0.0, 0.0, 0.0, 0.0, 0.0, 1.694681437466744E9, 0.0, 2023-09-14 10:50:37.466
148.0, -15.288593207430031, 187500.0, 187500.0, 187500.0, 187500.0, 187500.0, 187500.0, 187500.0, 0.036000000000000004, -0.018000000000000002, 1.0, 192.0, 0.0, 0.0, 0.0, 0.0, 0.0, 0.0, 0.0, 0.0, 0.0, 1.6946814374667845E9, 0.0, 2023-09-14 10:50:37.466
149.0, -33.885244594245506, 187500.0, 187500.0, 187500.0, 187500.0, 187500.0, 187500.0, 187500.0, 0.036000000000000004, -0.018000000000000002, 1.0, 192.0, 0.0, 0.0, 0.0, 0.0, 0.0, 0.0, 0.0, 0.0, 0.0, 1.6946814374668245E9, 0.0, 2023-09-14 10:50:37.466
150.0, -38.06502080738793, 187500.0, 187500.0, 187500.0, 187500.0, 187500.0, 187500.0, 187500.0, 0.036000000000000004, -0.018000000000000002, 1.0, 192.0, 0.0, 0.0, 0.0, 0.0, 0.0, 0.0, 0.0, 0.0, 0.0, 1.6946814374668653E9, 0.0, 2023-09-14 10:50:37.466
151.0, -38.04266906293262, 187500.0, 187500.0, 187500.0, 187500.0, 187500.0, 187500.0, 187500.0, 0.036000000000000004, -0.018000000000000002, 1.0, 192.0, 0.0, 0.0, 0.0, 0.0, 0.0, 0.0, 0.0, 0.0, 0.0, 1.6946814374669073E9, 0.0, 2023-09-14 10:50:37.466
152.0, -33.16998877167568, 187500.0, 187500.0, 187500.0, 187500.0, 187500.0, 187500.0, 187500.0, 0.036000000000000004, -0.018000000000000002, 1.0, 192.0, 0.0, 0.0, 0.0, 0.0, 0.0, 0.0, 0.0, 0.0, 0.0, 1.6946814374669497E9, 0.0, 2023-09-14 10:50:37.466
153.0, -14.506282151494284, 187500.0, 187500.0, 187500.0, 187500.0, 187500.0, 187500.0, 187500.0, 0.036000000000000004, -0.018000000000000002, 1.0, 192.0, 0.0, 0.0, 0.0, 0.0, 0.0, 0.0, 0.0, 0.0, 0.0, 1.6946814374669917E9, 0.0, 2023-09-14 10:50:37.466
154.0, -10.214747216075327, 187500.0, 187500.0, 187500.0, 187500.0, 187500.0, 187500.0, 187500.0, 0.036000000000000004, -0.018000000000000002, 1.0, 192.0, 0.0, 0.0, 0.0, 0.0, 0.0, 0.0, 0.0, 0.0, 0.0, 1.6946814374671695E9, 0.0, 2023-09-14 10:50:37.467
155.0, -10.19239547162002, 187500.0, 187500.0, 187500.0, 187500.0, 187500.0, 187500.0, 187500.0, 0.036000000000000004, -0.018000000000000002, 1.0, 192.0, 0.0, 0.0, 0.0, 0.0, 0.0, 0.0, 0.0, 0.0, 0.0, 1.6946814374671953E9, 0.0, 2023-09-14 10:50:37.467
156.0, -15.400351929706567, 187500.0, 187500.0, 187500.0, 187500.0, 187500.0, 187500.0, 187500.0, 0.036000000000000004, -0.022, 1.0, 192.0, 1.0, 32.0, 255.0, 80.0, 31.0, 64.0, 0.0, 0.0, 0.0, 1.694681437467221E9, 0.0, 2023-09-14 10:50:37.467
157.0, -33.885244594245506, 187500.0, 187500.0, 187500.0, 187500.0, 187500.0, 187500.0, 187500.0, 0.036000000000000004, -0.022, 1.0, 192.0, 0.0, 0.0, 0.0, 0.0, 0.0, 0.0, 0.0, 0.0, 0.0, 1.6946814374672475E9, 0.0, 2023-09-14 10:50:37.467
158.0, -38.35559348530692, 187500.0, 187500.0, 187500.0, 187500.0, 187500.0, 187500.0, 187500.0, 0.036000000000000004, -0.022, 1.0, 192.0, 0.0, 0.0, 0.0, 0.0, 0.0, 0.0, 0.0, 0.0, 0.0, 1.6946814374672718E9, 0.0, 2023-09-14 10:50:37.467
159.0, -38.109724296298545, 187500.0, 187500.0, 187500.0, 187500.0, 187500.0, 187500.0, 187500.0, 0.036000000000000004, -0.022, 1.0, 192.0, 0.0, 0.0, 0.0, 0.0, 0.0, 0.0, 0.0, 0.0, 0.0, 1.6946814374672964E9, 0.0, 2023-09-14 10:50:37.467
160.0, -33.16998877167568, 187500.0, 187500.0, 187500.0, 187500.0, 187500.0, 187500.0, 187500.0, 0.036000000000000004, -0.022, 1.0, 192.0, 0.0, 0.0, 0.0, 0.0, 0.0, 0.0, 0.0, 0.0, 0.0, 1.6946814374673202E9, 0.0, 2023-09-14 10:50:37.467
161.0, -14.506282151494284, 187500.0, 187500.0, 187500.0, 187500.0, 187500.0, 187500.0, 187500.0, 0.036000000000000004, -0.022, 1.0, 192.0, 0.0, 0.0, 0.0, 0.0, 0.0, 0.0, 0.0, 0.0, 0.0, 1.694681437467344E9, 0.0, 2023-09-14 10:50:37.467
162.0, -10.304154193896556, 187500.0, 187500.0, 187500.0, 187500.0, 187500.0, 187500.0, 187500.0, 0.036000000000000004, -0.022, 1.0, 192.0, 0.0, 0.0, 0.0, 0.0, 0.0, 0.0, 0.0, 0.0, 0.0, 1.6946814374673684E9, 0.0, 2023-09-14 10:50:37.467
163.0, -10.393561171717785, 187500.0, 187500.0, 187500.0, 187500.0, 187500.0, 187500.0, 187500.0, 0.036000000000000004, -0.022, 1.0, 192.0, 0.0, 0.0, 0.0, 0.0, 0.0, 0.0, 0.0, 0.0, 0.0, 1.6946814374673927E9, 0.0, 2023-09-14 10:50:37.467
164.0, -15.333296696340645, 187500.0, 187500.0, 187500.0, 187500.0, 187500.0, 187500.0, 187500.0, 0.036000000000000004, -0.022, 1.0, 192.0, 0.0, 0.0, 0.0, 0.0, 0.0, 0.0, 0.0, 0.0, 0.0, 1.69468143746742E9, 0.0, 2023-09-14 10:50:37.467
165.0, -33.84054110533489, 187500.0, 187500.0, 187500.0, 187500.0, 187500.0, 187500.0, 187500.0, 0.036000000000000004, -0.022, 1.0, 192.0, 0.0, 0.0, 0.0, 0.0, 0.0, 0.0, 0.0, 0.0, 0.0, 1.694681437467444E9, 0.0, 2023-09-14 10:50:37.467
166.0, -37.95326208511139, 187500.0, 187500.0, 187500.0, 187500.0, 187500.0, 187500.0, 187500.0, 0.032, -0.03, 1.002, 192.0, 1.0, 0.0, 255.0, 16.0, 31.0, 80.0, 0.0, 0.0, 0.0, 1.694681437467468E9, 0.0, 2023-09-14 10:50:37.467
167.0, -37.930910340656084, 187500.0, 187500.0, 187500.0, 187500.0, 187500.0, 187500.0, 187500.0, 0.032, -0.03, 1.002, 192.0, 0.0, 0.0, 0.0, 0.0, 0.0, 0.0, 0.0, 0.0, 0.0, 1.6946814374674933E9, 0.0, 2023-09-14 10:50:37.467
168.0, -33.16998877167568, 187500.0, 187500.0, 187500.0, 187500.0, 187500.0, 187500.0, 187500.0, 0.032, -0.03, 1.002, 192.0, 0.0, 0.0, 0.0, 0.0, 0.0, 0.0, 0.0, 0.0, 0.0, 1.6946814374675171E9, 0.0, 2023-09-14 10:50:37.467
169.0, -14.640392618226127, 187500.0, 187500.0, 187500.0, 187500.0, 187500.0, 187500.0, 187500.0, 0.032, -0.03, 1.002, 192.0, 0.0, 0.0, 0.0, 0.0, 0.0, 0.0, 0.0, 0.0, 0.0, 1.6946814374676185E9, 0.0, 2023-09-14 10:50:37.467
170.0, -10.058285004888178, 187500.0, 187500.0, 187500.0, 187500.0, 187500.0, 187500.0, 187500.0, 0.032, -0.03, 1.002, 192.0, 0.0, 0.0, 0.0, 0.0, 0.0, 0.0, 0.0, 0.0, 0.0, 1.6946814374676578E9, 0.0, 2023-09-14 10:50:37.467
171.0, -10.34885768280717, 187500.0, 187500.0, 187500.0, 187500.0, 187500.0, 187500.0, 187500.0, 0.032, -0.03, 1.002, 192.0, 0.0, 0.0, 0.0, 0.0, 0.0, 0.0, 0.0, 0.0, 0.0, 1.694681437467698E9, 0.0, 2023-09-14 10:50:37.467
172.0, -15.579165885349022, 187500.0, 187500.0, 187500.0, 187500.0, 187500.0, 187500.0, 187500.0, 0.032, -0.03, 1.002, 192.0, 0.0, 0.0, 0.0, 0.0, 0.0, 0.0, 0.0, 0.0, 0.0, 1.6946814374677396E9, 0.0, 2023-09-14 10:50:37.467
173.0, -34.06405854988796, 187500.0, 187500.0, 187500.0, 187500.0, 187500.0, 187500.0, 187500.0, 0.032, -0.03, 1.002, 192.0, 0.0, 0.0, 0.0, 0.0, 0.0, 0.0, 0.0, 0.0, 0.0, 1.694681437467778E9, 0.0, 2023-09-14 10:50:37.467
174.0, -38.08737255184324, 187500.0, 187500.0, 187500.0, 187500.0, 187500.0, 187500.0, 187500.0, 0.032, -0.03, 1.002, 192.0, 0.0, 0.0, 0.0, 0.0, 0.0, 0.0, 0.0, 0.0, 0.0, 1.6946814374678204E9, 0.0, 2023-09-14 10:50:37.467
175.0, -38.15442778520916, 187500.0, 187500.0, 187500.0, 187500.0, 187500.0, 187500.0, 187500.0, 0.032, -0.03, 1.002, 192.0, 0.0, 0.0, 0.0, 0.0, 0.0, 0.0, 0.0, 0.0, 0.0, 1.694681437467867E9, 0.0, 2023-09-14 10:50:37.467
176.0, -33.035878304943836, 187500.0, 187500.0, 187500.0, 187500.0, 187500.0, 187500.0, 187500.0, 0.032, -0.026000000000000002, 1.0, 192.0, 1.0, 0.0, 255.0, 48.0, 31.0, 64.0, 0.0, 0.0, 0.0, 1.6946814374679103E9, 0.0, 2023-09-14 10:50:37.467
177.0, -14.461578662583669, 187500.0, 187500.0, 187500.0, 187500.0, 187500.0, 187500.0, 187500.0, 0.032, -0.026000000000000002, 1.0, 192.0, 0.0, 0.0, 0.0, 0.0, 0.0, 0.0, 0.0, 0.0, 0.0, 1.6946814374679537E9, 0.0, 2023-09-14 10:50:37.467
178.0, -9.96887802706695, 187500.0, 187500.0, 187500.0, 187500.0, 187500.0, 187500.0, 187500.0, 0.032, -0.026000000000000002, 1.0, 192.0, 0.0, 0.0, 0.0, 0.0, 0.0, 0.0, 0.0, 0.0, 0.0, 1.694681437467991E9, 0.0, 2023-09-14 10:50:37.467
179.0, -10.34885768280717, 187500.0, 187500.0, 187500.0, 187500.0, 187500.0, 187500.0, 187500.0, 0.032, -0.026000000000000002, 1.0, 192.0, 0.0, 0.0, 0.0, 0.0, 0.0, 0.0, 0.0, 0.0, 0.0, 1.6946814374680312E9, 0.0, 2023-09-14 10:50:37.468
180.0, -14.908613551689811, 187500.0, 187500.0, 187500.0, 187500.0, 187500.0, 187500.0, 187500.0, 0.032, -0.026000000000000002, 1.0, 192.0, 0.0, 0.0, 0.0, 0.0, 0.0, 0.0, 0.0, 0.0, 0.0, 1.6946814374680755E9, 0.0, 2023-09-14 10:50:37.468
181.0, -33.72878238305836, 187500.0, 187500.0, 187500.0, 187500.0, 187500.0, 187500.0, 187500.0, 0.032, -0.026000000000000002, 1.0, 192.0, 0.0, 0.0, 0.0, 0.0, 0.0, 0.0, 0.0, 0.0, 0.0, 1.6946814374681208E9, 0.0, 2023-09-14 10:50:37.468
182.0, -38.109724296298545, 187500.0, 187500.0, 187500.0, 187500.0, 187500.0, 187500.0, 187500.0, 0.032, -0.026000000000000002, 1.0, 192.0, 0.0, 0.0, 0.0, 0.0, 0.0, 0.0, 0.0, 0.0, 0.0, 1.6946814374681656E9, 0.0, 2023-09-14 10:50:37.468
183.0, -38.35559348530692, 187500.0, 187500.0, 187500.0, 187500.0, 187500.0, 187500.0, 187500.0, 0.032, -0.026000000000000002, 1.0, 192.0, 0.0, 0.0, 0.0, 0.0, 0.0, 0.0, 0.0, 0.0, 0.0, 1.6946814374682112E9, 0.0, 2023-09-14 10:50:37.468
184.0, -33.52761668296059, 187500.0, 187500.0, 187500.0, 187500.0, 187500.0, 187500.0, 187500.0, 0.032, -0.026000000000000002, 1.0, 192.0, 0.0, 0.0, 0.0, 0.0, 0.0, 0.0, 0.0, 0.0, 0.0, 1.6946814374682553E9, 0.0, 2023-09-14 10:50:37.468
185.0, -14.796854829413276, 187500.0, 187500.0, 187500.0, 187500.0, 187500.0, 187500.0, 187500.0, 0.032, -0.026000000000000002, 1.0, 192.0, 0.0, 0.0, 0.0, 0.0, 0.0, 0.0, 0.0, 0.0, 0.0, 1.6946814374684393E9, 0.0, 2023-09-14 10:50:37.468
186.0, -9.96887802706695, 187500.0, 187500.0, 187500.0, 187500.0, 187500.0, 187500.0, 187500.0, 0.03, -0.02, 1.002, 192.0, 0.0, 240.0, 255.0, 96.0, 31.0, 80.0, 0.0, 0.0, 0.0, 1.6946814374684696E9, 0.0, 2023-09-14 10:50:37.468
187.0, -10.170043727164714, 187500.0, 187500.0, 187500.0, 187500.0, 187500.0, 187500.0, 187500.0, 0.03, -0.02, 1.002, 192.0, 0.0, 0.0, 0.0, 0.0, 0.0, 0.0, 0.0, 0.0, 0.0, 1.6946814374685032E9, 0.0, 2023-09-14 10:50:37.468
188.0, -15.020372273966347, 187500.0, 187500.0, 187500.0, 187500.0, 187500.0, 187500.0, 187500.0, 0.03, -0.02, 1.002, 192.0, 0.0, 0.0, 0.0, 0.0, 0.0, 0.0, 0.0, 0.0, 0.0, 1.6946814374685433E9, 0.0, 2023-09-14 10:50:37.468
189.0, -33.684078894147746, 187500.0, 187500.0, 187500.0, 187500.0, 187500.0, 187500.0, 187500.0, 0.03, -0.02, 1.002, 192.0, 0.0, 0.0, 0.0, 0.0, 0.0, 0.0, 0.0, 0.0, 0.0, 1.6946814374685867E9, 0.0, 2023-09-14 10:50:37.468
190.0, -37.9756138295667, 187500.0, 187500.0, 187500.0, 187500.0, 187500.0, 187500.0, 187500.0, 0.03, -0.02, 1.002, 192.0, 0.0, 0.0, 0.0, 0.0, 0.0, 0.0, 0.0, 0.0, 0.0, 1.694681437468618E9, 0.0, 2023-09-14 10:50:37.468
191.0, -37.81915161837955, 187500.0, 187500.0, 187500.0, 187500.0, 187500.0, 187500.0, 187500.0, 0.03, -0.02, 1.002, 192.0, 0.0, 0.0, 0.0, 0.0, 0.0, 0.0, 0.0, 0.0, 0.0, 1.694681437468642E9, 0.0, 2023-09-14 10:50:37.468
192.0, -33.34880272731814, 187500.0, 187500.0, 187500.0, 187500.0, 187500.0, 187500.0, 187500.0, 0.03, -0.02, 1.002, 192.0, 0.0, 0.0, 0.0, 0.0, 0.0, 0.0, 0.0, 0.0, 0.0, 1.694681437468666E9, 0.0, 2023-09-14 10:50:37.468
193.0, -14.908613551689811, 187500.0, 187500.0, 187500.0, 187500.0, 187500.0, 187500.0, 187500.0, 0.03, -0.02, 1.002, 192.0, 0.0, 0.0, 0.0, 0.0, 0.0, 0.0, 0.0, 0.0, 0.0, 1.69468143746869E9, 0.0, 2023-09-14 10:50:37.468
194.0, -10.393561171717785, 187500.0, 187500.0, 187500.0, 187500.0, 187500.0, 187500.0, 187500.0, 0.03, -0.02, 1.002, 192.0, 0.0, 0.0, 0.0, 0.0, 0.0, 0.0, 0.0, 0.0, 0.0, 1.6946814374687145E9, 0.0, 2023-09-14 10:50:37.468
195.0, -10.527671638449627, 187500.0, 187500.0, 187500.0, 187500.0, 187500.0, 187500.0, 187500.0, 0.03, -0.02, 1.002, 192.0, 0.0, 0.0, 0.0, 0.0, 0.0, 0.0, 0.0, 0.0, 0.0, 1.6946814374687383E9, 0.0, 2023-09-14 10:50:37.468
196.0, -15.199186229608802, 187500.0, 187500.0, 187500.0, 187500.0, 187500.0, 187500.0, 187500.0, 0.032, -0.022, 1.0, 192.0, 1.0, 0.0, 255.0, 80.0, 31.0, 64.0, 0.0, 0.0, 0.0, 1.6946814374687629E9, 0.0, 2023-09-14 10:50:37.468
197.0, -33.77348587196897, 187500.0, 187500.0, 187500.0, 187500.0, 187500.0, 187500.0, 187500.0, 0.032, -0.022, 1.0, 192.0, 0.0, 0.0, 0.0, 0.0, 0.0, 0.0, 0.0, 0.0, 0.0, 1.694681437468788E9, 0.0, 2023-09-14 10:50:37.468
198.0, -37.528578940460555, 187500.0, 187500.0, 187500.0, 187500.0, 187500.0, 187500.0, 187500.0, 0.032, -0.022, 1.0, 192.0, 0.0, 0.0, 0.0, 0.0, 0.0, 0.0, 0.0, 0.0, 0.0, 1.694681437468812E9, 0.0, 2023-09-14 10:50:37.468
199.0, -37.68504115164771, 187500.0, 187500.0, 187500.0, 187500.0, 187500.0, 187500.0, 187500.0, 0.032, -0.022, 1.0, 192.0, 0.0, 0.0, 0.0, 0.0, 0.0, 0.0, 0.0, 0.0, 0.0, 1.6946814374688365E9, 0.0, 2023-09-14 10:50:37.468
200.0, -33.237044005041604, 187500.0, 187500.0, 187500.0, 187500.0, 187500.0, 187500.0, 187500.0, 0.032, -0.022, 1.0, 192.0, 0.0, 0.0, 0.0, 0.0, 0.0, 0.0, 0.0, 0.0, 0.0, 1.6946814374689636E9, 0.0, 2023-09-14 10:50:37.468
201.0, -14.506282151494284, 187500.0, 187500.0, 187500.0, 187500.0, 187500.0, 187500.0, 187500.0, 0.032, -0.022, 1.0, 192.0, 0.0, 0.0, 0.0, 0.0, 0.0, 0.0, 0.0, 0.0, 0.0, 1.694681437468989E9, 0.0, 2023-09-14 10:50:37.468
202.0, -10.102988493798792, 187500.0, 187500.0, 187500.0, 187500.0, 187500.0, 187500.0, 187500.0, 0.032, -0.022, 1.0, 192.0, 0.0, 0.0, 0.0, 0.0, 0.0, 0.0, 0.0, 0.0, 0.0, 1.6946814374690137E9, 0.0, 2023-09-14 10:50:37.469
203.0, -10.371209427262476, 187500.0, 187500.0, 187500.0, 187500.0, 187500.0, 187500.0, 187500.0, 0.032, -0.022, 1.0, 192.0, 0.0, 0.0, 0.0, 0.0, 0.0, 0.0, 0.0, 0.0, 0.0, 1.6946814374690373E9, 0.0, 2023-09-14 10:50:37.469
204.0, -15.288593207430031, 187500.0, 187500.0, 187500.0, 187500.0, 187500.0, 187500.0, 187500.0, 0.032, -0.022, 1.0, 192.0, 0.0, 0.0, 0.0, 0.0, 0.0, 0.0, 0.0, 0.0, 0.0, 1.694681437469062E9, 0.0, 2023-09-14 10:50:37.469
205.0, -34.153465527709194, 187500.0, 187500.0, 187500.0, 187500.0, 187500.0, 187500.0, 187500.0, 0.032, -0.022, 1.0, 192.0, 0.0, 0.0, 0.0, 0.0, 0.0, 0.0, 0.0, 0.0, 0.0, 1.6946814374691036E9, 0.0, 2023-09-14 10:50:37.469
206.0, -38.310889996396305, 187500.0, 187500.0, 187500.0, 187500.0, 187500.0, 187500.0, 187500.0, 0.03, -0.022, 0.996, 192.0, 0.0, 240.0, 255.0, 80.0, 31.0, 32.0, 0.0, 0.0, 0.0, 1.6946814374691403E9, 0.0, 2023-09-14 10:50:37.469
207.0, -37.997965574022004, 187500.0, 187500.0, 187500.0, 187500.0, 187500.0, 187500.0, 187500.0, 0.03, -0.022, 0.996, 192.0, 0.0, 0.0, 0.0, 0.0, 0.0, 0.0, 0.0, 0.0, 0.0, 1.694681437469169E9, 0.0, 2023-09-14 10:50:37.469
208.0, -33.12528528276507, 187500.0, 187500.0, 187500.0, 187500.0, 187500.0, 187500.0, 187500.0, 0.03, -0.022, 0.996, 192.0, 0.0, 0.0, 0.0, 0.0, 0.0, 0.0, 0.0, 0.0, 0.0, 1.6946814374691973E9, 0.0, 2023-09-14 10:50:37.469
209.0, -14.61804087377082, 187500.0, 187500.0, 187500.0, 187500.0, 187500.0, 187500.0, 187500.0, 0.03, -0.022, 0.996, 192.0, 0.0, 0.0, 0.0, 0.0, 0.0, 0.0, 0.0, 0.0, 0.0, 1.6946814374692216E9, 0.0, 2023-09-14 10:50:37.469
210.0, -10.19239547162002, 187500.0, 187500.0, 187500.0, 187500.0, 187500.0, 187500.0, 187500.0, 0.03, -0.022, 0.996, 192.0, 0.0, 0.0, 0.0, 0.0, 0.0, 0.0, 0.0, 0.0, 0.0, 1.694681437469246E9, 0.0, 2023-09-14 10:50:37.469
211.0, -10.19239547162002, 187500.0, 187500.0, 187500.0, 187500.0, 187500.0, 187500.0, 187500.0, 0.03, -0.022, 0.996, 192.0, 0.0, 0.0, 0.0, 0.0, 0.0, 0.0, 0.0, 0.0, 0.0, 1.6946814374692748E9, 0.0, 2023-09-14 10:50:37.469
212.0, -15.132130996242882, 187500.0, 187500.0, 187500.0, 187500.0, 187500.0, 187500.0, 187500.0, 0.03, -0.022, 0.996, 192.0, 0.0, 0.0, 0.0, 0.0, 0.0, 0.0, 0.0, 0.0, 0.0, 1.6946814374693124E9, 0.0, 2023-09-14 10:50:37.469
213.0, -33.84054110533489, 187500.0, 187500.0, 187500.0, 187500.0, 187500.0, 187500.0, 187500.0, 0.03, -0.022, 0.996, 192.0, 0.0, 0.0, 0.0, 0.0, 0.0, 0.0, 0.0, 0.0, 0.0, 1.6946814374693484E9, 0.0, 2023-09-14 10:50:37.469
214.0, -38.02031731847731, 187500.0, 187500.0, 187500.0, 187500.0, 187500.0, 187500.0, 187500.0, 0.03, -0.022, 0.996, 192.0, 0.0, 0.0, 0.0, 0.0, 0.0, 0.0, 0.0, 0.0, 0.0, 1.6946814374693828E9, 0.0, 2023-09-14 10:50:37.469
215.0, -37.997965574022004, 187500.0, 187500.0, 187500.0, 187500.0, 187500.0, 187500.0, 187500.0, 0.03, -0.022, 0.996, 192.0, 0.0, 0.0, 0.0, 0.0, 0.0, 0.0, 0.0, 0.0, 0.0, 1.6946814374694471E9, 0.0, 2023-09-14 10:50:37.469
216.0, -33.12528528276507, 187500.0, 187500.0, 187500.0, 187500.0, 187500.0, 187500.0, 187500.0, 0.034, -0.022, 0.996, 192.0, 1.0, 16.0, 255.0, 80.0, 31.0, 32.0, 0.0, 0.0, 0.0, 1.6946814374694784E9, 0.0, 2023-09-14 10:50:37.469
217.0, -14.215709473575291, 187500.0, 187500.0, 187500.0, 187500.0, 187500.0, 187500.0, 187500.0, 0.034, -0.022, 0.996, 192.0, 0.0, 0.0, 0.0, 0.0, 0.0, 0.0, 0.0, 0.0, 0.0, 1.6946814374695213E9, 0.0, 2023-09-14 10:50:37.469
218.0, -10.415912916173092, 187500.0, 187500.0, 187500.0, 187500.0, 187500.0, 187500.0, 187500.0, 0.034, -0.022, 0.996, 192.0, 0.0, 0.0, 0.0, 0.0, 0.0, 0.0, 0.0, 0.0, 0.0, 1.6946814374695518E9, 0.0, 2023-09-14 10:50:37.469
219.0, -10.214747216075327, 187500.0, 187500.0, 187500.0, 187500.0, 187500.0, 187500.0, 187500.0, 0.034, -0.022, 0.996, 192.0, 0.0, 0.0, 0.0, 0.0, 0.0, 0.0, 0.0, 0.0, 0.0, 1.6946814374695895E9, 0.0, 2023-09-14 10:50:37.469
220.0, -15.020372273966347, 187500.0, 187500.0, 187500.0, 187500.0, 187500.0, 187500.0, 187500.0, 0.034, -0.022, 0.996, 192.0, 0.0, 0.0, 0.0, 0.0, 0.0, 0.0, 0.0, 0.0, 0.0, 1.6946814374696207E9, 0.0, 2023-09-14 10:50:37.469
221.0, -33.70643063860305, 187500.0, 187500.0, 187500.0, 187500.0, 187500.0, 187500.0, 187500.0, 0.034, -0.022, 0.996, 192.0, 0.0, 0.0, 0.0, 0.0, 0.0, 0.0, 0.0, 0.0, 0.0, 1.6946814374696448E9, 0.0, 2023-09-14 10:50:37.469
222.0, -38.08737255184324, 187500.0, 187500.0, 187500.0, 187500.0, 187500.0, 187500.0, 187500.0, 0.034, -0.022, 0.996, 192.0, 0.0, 0.0, 0.0, 0.0, 0.0, 0.0, 0.0, 0.0, 0.0, 1.694681437469674E9, 0.0, 2023-09-14 10:50:37.469
223.0, -38.22148301857508, 187500.0, 187500.0, 187500.0, 187500.0, 187500.0, 187500.0, 187500.0, 0.034, -0.022, 0.996, 192.0, 0.0, 0.0, 0.0, 0.0, 0.0, 0.0, 0.0, 0.0, 0.0, 1.6946814374697127E9, 0.0, 2023-09-14 10:50:37.469
224.0, -33.438209705139364, 187500.0, 187500.0, 187500.0, 187500.0, 187500.0, 187500.0, 187500.0, 0.034, -0.022, 0.996, 192.0, 0.0, 0.0, 0.0, 0.0, 0.0, 0.0, 0.0, 0.0, 0.0, 1.6946814374697375E9, 0.0, 2023-09-14 10:50:37.469
225.0, -14.550985640404898, 187500.0, 187500.0, 187500.0, 187500.0, 187500.0, 187500.0, 187500.0, 0.034, -0.022, 0.996, 192.0, 0.0, 0.0, 0.0, 0.0, 0.0, 0.0, 0.0, 0.0, 0.0, 1.6946814374697616E9, 0.0, 2023-09-14 10:50:37.469
226.0, -10.19239547162002, 187500.0, 187500.0, 187500.0, 187500.0, 187500.0, 187500.0, 187500.0, 0.038, -0.02, 1.0, 192.0, 1.0, 48.0, 255.0, 96.0, 31.0, 64.0, 0.0, 0.0, 0.0, 1.6946814374697857E9, 0.0, 2023-09-14 10:50:37.469
227.0, -10.460616405083705, 187500.0, 187500.0, 187500.0, 187500.0, 187500.0, 187500.0, 187500.0, 0.038, -0.02, 1.0, 192.0, 0.0, 0.0, 0.0, 0.0, 0.0, 0.0, 0.0, 0.0, 0.0, 1.6946814374698112E9, 0.0, 2023-09-14 10:50:37.469
228.0, -15.44505541861718, 187500.0, 187500.0, 187500.0, 187500.0, 187500.0, 187500.0, 187500.0, 0.038, -0.02, 1.0, 192.0, 0.0, 0.0, 0.0, 0.0, 0.0, 0.0, 0.0, 0.0, 0.0, 1.6946814374698353E9, 0.0, 2023-09-14 10:50:37.469
229.0, -34.24287250553042, 187500.0, 187500.0, 187500.0, 187500.0, 187500.0, 187500.0, 187500.0, 0.038, -0.02, 1.0, 192.0, 0.0, 0.0, 0.0, 0.0, 0.0, 0.0, 0.0, 0.0, 0.0, 1.6946814374698596E9, 0.0, 2023-09-14 10:50:37.469
230.0, -37.86385510729016, 187500.0, 187500.0, 187500.0, 187500.0, 187500.0, 187500.0, 187500.0, 0.038, -0.02, 1.0, 192.0, 0.0, 0.0, 0.0, 0.0, 0.0, 0.0, 0.0, 0.0, 0.0, 1.6946814374698837E9, 0.0, 2023-09-14 10:50:37.469
231.0, -38.02031731847731, 187500.0, 187500.0, 187500.0, 187500.0, 187500.0, 187500.0, 187500.0, 0.038, -0.02, 1.0, 192.0, 0.0, 0.0, 0.0, 0.0, 0.0, 0.0, 0.0, 0.0, 0.0, 1.6946814374699392E9, 0.0, 2023-09-14 10:50:37.469
232.0, -33.39350621622875, 187500.0, 187500.0, 187500.0, 187500.0, 187500.0, 187500.0, 187500.0, 0.038, -0.02, 1.0, 192.0, 0.0, 0.0, 0.0, 0.0, 0.0, 0.0, 0.0, 0.0, 0.0, 1.6946814374699636E9, 0.0, 2023-09-14 10:50:37.469
233.0, -14.461578662583669, 187500.0, 187500.0, 187500.0, 187500.0, 187500.0, 187500.0, 187500.0, 0.038, -0.02, 1.0, 192.0, 0.0, 0.0, 0.0, 0.0, 0.0, 0.0, 0.0, 0.0, 0.0, 1.6946814374699876E9, 0.0, 2023-09-14 10:50:37.469
234.0, -10.482968149539012, 187500.0, 187500.0, 187500.0, 187500.0, 187500.0, 187500.0, 187500.0, 0.038, -0.02, 1.0, 192.0, 0.0, 0.0, 0.0, 0.0, 0.0, 0.0, 0.0, 0.0, 0.0, 1.6946814374700112E9, 0.0, 2023-09-14 10:50:37.470
235.0, -10.058285004888178, 187500.0, 187500.0, 187500.0, 187500.0, 187500.0, 187500.0, 187500.0, 0.038, -0.02, 1.0, 192.0, 0.0, 0.0, 0.0, 0.0, 0.0, 0.0, 0.0, 0.0, 0.0, 1.6946814374700353E9, 0.0, 2023-09-14 10:50:37.470
236.0, -15.109779251787574, 187500.0, 187500.0, 187500.0, 187500.0, 187500.0, 187500.0, 187500.0, 0.034, -0.02, 1.004, 192.0, 1.0, 16.0, 255.0, 96.0, 31.0, 96.0, 0.0, 0.0, 0.0, 1.6946814374700599E9, 0.0, 2023-09-14 10:50:37.470
237.0, -33.885244594245506, 187500.0, 187500.0, 187500.0, 187500.0, 187500.0, 187500.0, 187500.0, 0.034, -0.02, 1.004, 192.0, 0.0, 0.0, 0.0, 0.0, 0.0, 0.0, 0.0, 0.0, 0.0, 1.6946814374700851E9, 0.0, 2023-09-14 10:50:37.470
238.0, -38.13207604075385, 187500.0, 187500.0, 187500.0, 187500.0, 187500.0, 187500.0, 187500.0, 0.034, -0.02, 1.004, 192.0, 0.0, 0.0, 0.0, 0.0, 0.0, 0.0, 0.0, 0.0, 0.0, 1.6946814374701097E9, 0.0, 2023-09-14 10:50:37.470
239.0, -38.19913127411977, 187500.0, 187500.0, 187500.0, 187500.0, 187500.0, 187500.0, 187500.0, 0.034, -0.02, 1.004, 192.0, 0.0, 0.0, 0.0, 0.0, 0.0, 0.0, 0.0, 0.0, 0.0, 1.6946814374701335E9, 0.0, 2023-09-14 10:50:37.470
240.0, -33.32645098286283, 187500.0, 187500.0, 187500.0, 187500.0, 187500.0, 187500.0, 187500.0, 0.034, -0.02, 1.004, 192.0, 0.0, 0.0, 0.0, 0.0, 0.0, 0.0, 0.0, 0.0, 0.0, 1.6946814374701576E9, 0.0, 2023-09-14 10:50:37.470
241.0, -14.729799596047354, 187500.0, 187500.0, 187500.0, 187500.0, 187500.0, 187500.0, 187500.0, 0.034, -0.02, 1.004, 192.0, 0.0, 0.0, 0.0, 0.0, 0.0, 0.0, 0.0, 0.0, 0.0, 1.6946814374701817E9, 0.0, 2023-09-14 10:50:37.470
242.0, -10.415912916173092, 187500.0, 187500.0, 187500.0, 187500.0, 187500.0, 187500.0, 187500.0, 0.034, -0.02, 1.004, 192.0, 0.0, 0.0, 0.0, 0.0, 0.0, 0.0, 0.0, 0.0, 0.0, 1.694681437945715E9, 0.0, 2023-09-14 10:50:37.945
243.0, -10.237098960530634, 187500.0, 187500.0, 187500.0, 187500.0, 187500.0, 187500.0, 187500.0, 0.034, -0.02, 1.004, 192.0, 0.0, 0.0, 0.0, 0.0, 0.0, 0.0, 0.0, 0.0, 0.0, 1.6946814379459283E9, 0.0, 2023-09-14 10:50:37.945
244.0, -15.400351929706567, 187500.0, 187500.0, 187500.0, 187500.0, 187500.0, 187500.0, 187500.0, 0.034, -0.02, 1.004, 192.0, 0.0, 0.0, 0.0, 0.0, 0.0, 0.0, 0.0, 0.0, 0.0, 1.6946814379459703E9, 0.0, 2023-09-14 10:50:37.945
245.0, -34.10876203879858, 187500.0, 187500.0, 187500.0, 187500.0, 187500.0, 187500.0, 187500.0, 0.032, -0.024, 1.004, 192.0, 1.0, 0.0, 255.0, 64.0, 31.0, 96.0, 0.0, 0.0, 0.0, 1.6946814379460225E9, 0.0, 2023-09-14 10:50:37.946
246.0, -38.109724296298545, 187500.0, 187500.0, 187500.0, 187500.0, 187500.0, 187500.0, 187500.0, 0.032, -0.024, 1.004, 192.0, 0.0, 0.0, 0.0, 0.0, 0.0, 0.0, 0.0, 0.0, 0.0, 1.6946814379461823E9, 0.0, 2023-09-14 10:50:37.946
247.0, -37.86385510729016, 187500.0, 187500.0, 187500.0, 187500.0, 187500.0, 187500.0, 187500.0, 0.032, -0.024, 1.004, 192.0, 0.0, 0.0, 0.0, 0.0, 0.0, 0.0, 0.0, 0.0, 0.0, 1.6946814379462278E9, 0.0, 2023-09-14 10:50:37.946
248.0, -32.94647132712261, 187500.0, 187500.0, 187500.0, 187500.0, 187500.0, 187500.0, 187500.0, 0.032, -0.024, 1.004, 192.0, 0.0, 0.0, 0.0, 0.0, 0.0, 0.0, 0.0, 0.0, 0.0, 1.6946814379462767E9, 0.0, 2023-09-14 10:50:37.946
249.0, -14.640392618226127, 187500.0, 187500.0, 187500.0, 187500.0, 187500.0, 187500.0, 187500.0, 0.032, -0.024, 1.004, 192.0, 0.0, 0.0, 0.0, 0.0, 0.0, 0.0, 0.0, 0.0, 0.0, 1.694681437946328E9, 0.0, 2023-09-14 10:50:37.946
250.0, -10.035933260432872, 187500.0, 187500.0, 187500.0, 187500.0, 187500.0, 187500.0, 187500.0, 0.032, -0.024, 1.004, 192.0, 0.0, 0.0, 0.0, 0.0, 0.0, 0.0, 0.0, 0.0, 0.0, 1.694681437946372E9, 0.0, 2023-09-14 10:50:37.946
251.0, -10.237098960530634, 187500.0, 187500.0, 187500.0, 187500.0, 187500.0, 187500.0, 187500.0, 0.032, -0.024, 1.004, 192.0, 0.0, 0.0, 0.0, 0.0, 0.0, 0.0, 0.0, 0.0, 0.0, 1.6946814379464192E9, 0.0, 2023-09-14 10:50:37.946
252.0, -15.132130996242882, 187500.0, 187500.0, 187500.0, 187500.0, 187500.0, 187500.0, 187500.0, 0.032, -0.024, 1.004, 192.0, 0.0, 0.0, 0.0, 0.0, 0.0, 0.0, 0.0, 0.0, 0.0, 1.694681437946467E9, 0.0, 2023-09-14 10:50:37.946
253.0, -33.72878238305836, 187500.0, 187500.0, 187500.0, 187500.0, 187500.0, 187500.0, 187500.0, 0.032, -0.024, 1.004, 192.0, 0.0, 0.0, 0.0, 0.0, 0.0, 0.0, 0.0, 0.0, 0.0, 1.6946814379465165E9, 0.0, 2023-09-14 10:50:37.946
254.0, -37.9756138295667, 187500.0, 187500.0, 187500.0, 187500.0, 187500.0, 187500.0, 187500.0, 0.032, -0.024, 1.004, 192.0, 0.0, 0.0, 0.0, 0.0, 0.0, 0.0, 0.0, 0.0, 0.0, 1.6946814379465573E9, 0.0, 2023-09-14 10:50:37.946
255.0, -38.176779529664465, 187500.0, 187500.0, 187500.0, 187500.0, 187500.0, 187500.0, 187500.0, 0.034, -0.022, 0.998, 192.0, 1.0, 16.0, 255.0, 80.0, 31.0, 48.0, 0.0, 0.0, 0.0, 1.694681437946601E9, 0.0, 2023-09-14 10:50:37.946
0.0, -33.505264938505285, 187500.0, 187500.0, 187500.0, 187500.0, 187500.0, 187500.0, 187500.0, 0.034, -0.022, 0.998, 192.0, 0.0, 0.0, 0.0, 0.0, 0.0, 0.0, 0.0, 0.0, 0.0, 1.694681437946629E9, 0.0, 2023-09-14 10:50:37.946
1.0, -14.394523429217749, 187500.0, 187500.0, 187500.0, 187500.0, 187500.0, 187500.0, 187500.0, 0.034, -0.022, 0.998, 192.0, 0.0, 0.0, 0.0, 0.0, 0.0, 0.0, 0.0, 0.0, 0.0, 1.6946814379466543E9, 0.0, 2023-09-14 10:50:37.946
2.0, -10.19239547162002, 187500.0, 187500.0, 187500.0, 187500.0, 187500.0, 187500.0, 187500.0, 0.034, -0.022, 0.998, 192.0, 0.0, 0.0, 0.0, 0.0, 0.0, 0.0, 0.0, 0.0, 0.0, 1.694681437946679E9, 0.0, 2023-09-14 10:50:37.946
3.0, -10.013581515977563, 187500.0, 187500.0, 187500.0, 187500.0, 187500.0, 187500.0, 187500.0, 0.034, -0.022, 0.998, 192.0, 0.0, 0.0, 0.0, 0.0, 0.0, 0.0, 0.0, 0.0, 0.0, 1.6946814379467037E9, 0.0, 2023-09-14 10:50:37.946
4.0, -15.176834485153496, 187500.0, 187500.0, 187500.0, 187500.0, 187500.0, 187500.0, 187500.0, 0.034, -0.022, 0.998, 192.0, 0.0, 0.0, 0.0, 0.0, 0.0, 0.0, 0.0, 0.0, 0.0, 1.694681437946728E9, 0.0, 2023-09-14 10:50:37.946
5.0, -33.72878238305836, 187500.0, 187500.0, 187500.0, 187500.0, 187500.0, 187500.0, 187500.0, 0.034, -0.022, 0.998, 192.0, 0.0, 0.0, 0.0, 0.0, 0.0, 0.0, 0.0, 0.0, 0.0, 1.6946814379467938E9, 0.0, 2023-09-14 10:50:37.946
6.0, -37.9756138295667, 187500.0, 187500.0, 187500.0, 187500.0, 187500.0, 187500.0, 187500.0, 0.034, -0.022, 0.998, 192.0, 0.0, 0.0, 0.0, 0.0, 0.0, 0.0, 0.0, 0.0, 0.0, 1.6946814379468188E9, 0.0, 2023-09-14 10:50:37.946
7.0, -38.243834763030385, 187500.0, 187500.0, 187500.0, 187500.0, 187500.0, 187500.0, 187500.0, 0.034, -0.022, 0.998, 192.0, 0.0, 0.0, 0.0, 0.0, 0.0, 0.0, 0.0, 0.0, 0.0, 1.694681437946843E9, 0.0, 2023-09-14 10:50:37.946
8.0, -33.505264938505285, 187500.0, 187500.0, 187500.0, 187500.0, 187500.0, 187500.0, 187500.0, 0.034, -0.022, 0.998, 192.0, 0.0, 0.0, 0.0, 0.0, 0.0, 0.0, 0.0, 0.0, 0.0, 1.6946814379468672E9, 0.0, 2023-09-14 10:50:37.946
9.0, -14.707447851592047, 187500.0, 187500.0, 187500.0, 187500.0, 187500.0, 187500.0, 187500.0, 0.036000000000000004, -0.02, 1.002, 192.0, 1.0, 32.0, 255.0, 96.0, 31.0, 80.0, 0.0, 0.0, 0.0, 1.6946814379468913E9, 0.0, 2023-09-14 10:50:37.946
10.0, -10.035933260432872, 187500.0, 187500.0, 187500.0, 187500.0, 187500.0, 187500.0, 187500.0, 0.036000000000000004, -0.02, 1.002, 192.0, 0.0, 0.0, 0.0, 0.0, 0.0, 0.0, 0.0, 0.0, 0.0, 1.6946814379469173E9, 0.0, 2023-09-14 10:50:37.946
11.0, -10.147691982709407, 187500.0, 187500.0, 187500.0, 187500.0, 187500.0, 187500.0, 187500.0, 0.036000000000000004, -0.02, 1.002, 192.0, 0.0, 0.0, 0.0, 0.0, 0.0, 0.0, 0.0, 0.0, 0.0, 1.6946814379469411E9, 0.0, 2023-09-14 10:50:37.946
12.0, -15.199186229608802, 187500.0, 187500.0, 187500.0, 187500.0, 187500.0, 187500.0, 187500.0, 0.036000000000000004, -0.02, 1.002, 192.0, 0.0, 0.0, 0.0, 0.0, 0.0, 0.0, 0.0, 0.0, 0.0, 1.694681437946966E9, 0.0, 2023-09-14 10:50:37.946
13.0, -33.95229982761143, 187500.0, 187500.0, 187500.0, 187500.0, 187500.0, 187500.0, 187500.0, 0.036000000000000004, -0.02, 1.002, 192.0, 0.0, 0.0, 0.0, 0.0, 0.0, 0.0, 0.0, 0.0, 0.0, 1.69468143794699E9, 0.0, 2023-09-14 10:50:37.946
14.0, -38.19913127411977, 187500.0, 187500.0, 187500.0, 187500.0, 187500.0, 187500.0, 187500.0, 0.036000000000000004, -0.02, 1.002, 192.0, 0.0, 0.0, 0.0, 0.0, 0.0, 0.0, 0.0, 0.0, 0.0, 1.694681437947014E9, 0.0, 2023-09-14 10:50:37.947
15.0, -38.26618650748569, 187500.0, 187500.0, 187500.0, 187500.0, 187500.0, 187500.0, 187500.0, 0.036000000000000004, -0.02, 1.002, 192.0, 0.0, 0.0, 0.0, 0.0, 0.0, 0.0, 0.0, 0.0, 0.0, 1.694681437947038E9, 0.0, 2023-09-14 10:50:37.947
16.0, -33.237044005041604, 187500.0, 187500.0, 187500.0, 187500.0, 187500.0, 187500.0, 187500.0, 0.036000000000000004, -0.02, 1.002, 192.0, 0.0, 0.0, 0.0, 0.0, 0.0, 0.0, 0.0, 0.0, 0.0, 1.694681437947062E9, 0.0, 2023-09-14 10:50:37.947
17.0, -14.506282151494284, 187500.0, 187500.0, 187500.0, 187500.0, 187500.0, 187500.0, 187500.0, 0.036000000000000004, -0.02, 1.002, 192.0, 0.0, 0.0, 0.0, 0.0, 0.0, 0.0, 0.0, 0.0, 0.0, 1.694681437947086E9, 0.0, 2023-09-14 10:50:37.947
18.0, -10.326505938351863, 187500.0, 187500.0, 187500.0, 187500.0, 187500.0, 187500.0, 187500.0, 0.036000000000000004, -0.02, 1.002, 192.0, 0.0, 0.0, 0.0, 0.0, 0.0, 0.0, 0.0, 0.0, 0.0, 1.6946814379471102E9, 0.0, 2023-09-14 10:50:37.947
19.0, -10.058285004888178, 187500.0, 187500.0, 187500.0, 187500.0, 187500.0, 187500.0, 187500.0, 0.032, -0.018000000000000002, 1.006, 192.0, 1.0, 0.0, 255.0, 112.0, 31.0, 112.0, 0.0, 0.0, 0.0, 1.6946814379471345E9, 0.0, 2023-09-14 10:50:37.947
20.0, -15.132130996242882, 187500.0, 187500.0, 187500.0, 187500.0, 187500.0, 187500.0, 187500.0, 0.032, -0.018000000000000002, 1.006, 192.0, 0.0, 0.0, 0.0, 0.0, 0.0, 0.0, 0.0, 0.0, 0.0, 1.6946814379471593E9, 0.0, 2023-09-14 10:50:37.947
21.0, -33.8628928497902, 187500.0, 187500.0, 187500.0, 187500.0, 187500.0, 187500.0, 187500.0, 0.032, -0.018000000000000002, 1.006, 192.0, 0.0, 0.0, 0.0, 0.0, 0.0, 0.0, 0.0, 0.0, 0.0, 1.6946814379472084E9, 0.0, 2023-09-14 10:50:37.947
22.0, -38.19913127411977, 187500.0, 187500.0, 187500.0, 187500.0, 187500.0, 187500.0, 187500.0, 0.032, -0.018000000000000002, 1.006, 192.0, 0.0, 0.0, 0.0, 0.0, 0.0, 0.0, 0.0, 0.0, 0.0, 1.6946814379472332E9, 0.0, 2023-09-14 10:50:37.947
23.0, -38.35559348530692, 187500.0, 187500.0, 187500.0, 187500.0, 187500.0, 187500.0, 187500.0, 0.032, -0.018000000000000002, 1.006, 192.0, 0.0, 0.0, 0.0, 0.0, 0.0, 0.0, 0.0, 0.0, 0.0, 1.6946814379472575E9, 0.0, 2023-09-14 10:50:37.947
24.0, -33.5499684274159, 187500.0, 187500.0, 187500.0, 187500.0, 187500.0, 187500.0, 187500.0, 0.032, -0.018000000000000002, 1.006, 192.0, 0.0, 0.0, 0.0, 0.0, 0.0, 0.0, 0.0, 0.0, 0.0, 1.6946814379472816E9, 0.0, 2023-09-14 10:50:37.947
25.0, -14.68509610713674, 187500.0, 187500.0, 187500.0, 187500.0, 187500.0, 187500.0, 187500.0, 0.032, -0.018000000000000002, 1.006, 192.0, 0.0, 0.0, 0.0, 0.0, 0.0, 0.0, 0.0, 0.0, 0.0, 1.694681437947306E9, 0.0, 2023-09-14 10:50:37.947
26.0, -10.237098960530634, 187500.0, 187500.0, 187500.0, 187500.0, 187500.0, 187500.0, 187500.0, 0.032, -0.018000000000000002, 1.006, 192.0, 0.0, 0.0, 0.0, 0.0, 0.0, 0.0, 0.0, 0.0, 0.0, 1.69468143794733E9, 0.0, 2023-09-14 10:50:37.947
27.0, -9.924174538156336, 187500.0, 187500.0, 187500.0, 187500.0, 187500.0, 187500.0, 187500.0, 0.032, -0.018000000000000002, 1.006, 192.0, 0.0, 0.0, 0.0, 0.0, 0.0, 0.0, 0.0, 0.0, 0.0, 1.694681437947354E9, 0.0, 2023-09-14 10:50:37.947
28.0, -15.154482740698189, 187500.0, 187500.0, 187500.0, 187500.0, 187500.0, 187500.0, 187500.0, 0.032, -0.018000000000000002, 1.006, 192.0, 0.0, 0.0, 0.0, 0.0, 0.0, 0.0, 0.0, 0.0, 0.0, 1.694681437947378E9, 0.0, 2023-09-14 10:50:37.947
29.0, -33.79583761642428, 187500.0, 187500.0, 187500.0, 187500.0, 187500.0, 187500.0, 187500.0, 0.034, -0.016, 1.006, 192.0, 1.0, 16.0, 255.0, 128.0, 31.0, 112.0, 0.0, 0.0, 0.0, 1.6946814379474025E9, 0.0, 2023-09-14 10:50:37.947
30.0, -38.15442778520916, 187500.0, 187500.0, 187500.0, 187500.0, 187500.0, 187500.0, 187500.0, 0.034, -0.016, 1.006, 192.0, 0.0, 0.0, 0.0, 0.0, 0.0, 0.0, 0.0, 0.0, 0.0, 1.6946814379474277E9, 0.0, 2023-09-14 10:50:37.947
31.0, -37.77444812946894, 187500.0, 187500.0, 187500.0, 187500.0, 187500.0, 187500.0, 187500.0, 0.034, -0.016, 1.006, 192.0, 0.0, 0.0, 0.0, 0.0, 0.0, 0.0, 0.0, 0.0, 0.0, 1.6946814379474747E9, 0.0, 2023-09-14 10:50:37.947
32.0, -33.10293353830976, 187500.0, 187500.0, 187500.0, 187500.0, 187500.0, 187500.0, 187500.0, 0.034, -0.016, 1.006, 192.0, 0.0, 0.0, 0.0, 0.0, 0.0, 0.0, 0.0, 0.0, 0.0, 1.6946814379475024E9, 0.0, 2023-09-14 10:50:37.947
33.0, -14.774503084957969, 187500.0, 187500.0, 187500.0, 187500.0, 187500.0, 187500.0, 187500.0, 0.034, -0.016, 1.006, 192.0, 0.0, 0.0, 0.0, 0.0, 0.0, 0.0, 0.0, 0.0, 0.0, 1.6946814379475265E9, 0.0, 2023-09-14 10:50:37.947
34.0, -10.28180244944125, 187500.0, 187500.0, 187500.0, 187500.0, 187500.0, 187500.0, 187500.0, 0.034, -0.016, 1.006, 192.0, 0.0, 0.0, 0.0, 0.0, 0.0, 0.0, 0.0, 0.0, 0.0, 1.6946814379475503E9, 0.0, 2023-09-14 10:50:37.947
35.0, -9.96887802706695, 187500.0, 187500.0, 187500.0, 187500.0, 187500.0, 187500.0, 187500.0, 0.034, -0.016, 1.006, 192.0, 0.0, 0.0, 0.0, 0.0, 0.0, 0.0, 0.0, 0.0, 0.0, 1.6946814379475744E9, 0.0, 2023-09-14 10:50:37.947
36.0, -15.400351929706567, 187500.0, 187500.0, 187500.0, 187500.0, 187500.0, 187500.0, 187500.0, 0.034, -0.016, 1.006, 192.0, 0.0, 0.0, 0.0, 0.0, 0.0, 0.0, 0.0, 0.0, 0.0, 1.6946814379476297E9, 0.0, 2023-09-14 10:50:37.947
37.0, -34.04170680543265, 187500.0, 187500.0, 187500.0, 187500.0, 187500.0, 187500.0, 187500.0, 0.034, -0.016, 1.006, 192.0, 0.0, 0.0, 0.0, 0.0, 0.0, 0.0, 0.0, 0.0, 0.0, 1.6946814379476545E9, 0.0, 2023-09-14 10:50:37.947
38.0, -38.42264871867284, 187500.0, 187500.0, 187500.0, 187500.0, 187500.0, 187500.0, 187500.0, 0.034, -0.016, 1.006, 192.0, 0.0, 0.0, 0.0, 0.0, 0.0, 0.0, 0.0, 0.0, 0.0, 1.6946814379476788E9, 0.0, 2023-09-14 10:50:37.947
39.0, -38.13207604075385, 187500.0, 187500.0, 187500.0, 187500.0, 187500.0, 187500.0, 187500.0, 0.03, -0.016, 1.004, 192.0, 0.0, 240.0, 255.0, 128.0, 31.0, 96.0, 0.0, 0.0, 0.0, 1.694681437947703E9, 0.0, 2023-09-14 10:50:37.947
40.0, -33.12528528276507, 187500.0, 187500.0, 187500.0, 187500.0, 187500.0, 187500.0, 187500.0, 0.03, -0.016, 1.004, 192.0, 0.0, 0.0, 0.0, 0.0, 0.0, 0.0, 0.0, 0.0, 0.0, 1.694681437947728E9, 0.0, 2023-09-14 10:50:37.947
41.0, -14.863910062779196, 187500.0, 187500.0, 187500.0, 187500.0, 187500.0, 187500.0, 187500.0, 0.03, -0.016, 1.004, 192.0, 0.0, 0.0, 0.0, 0.0, 0.0, 0.0, 0.0, 0.0, 0.0, 1.6946814379477532E9, 0.0, 2023-09-14 10:50:37.947
42.0, -10.28180244944125, 187500.0, 187500.0, 187500.0, 187500.0, 187500.0, 187500.0, 187500.0, 0.03, -0.016, 1.004, 192.0, 0.0, 0.0, 0.0, 0.0, 0.0, 0.0, 0.0, 0.0, 0.0, 1.694681437947778E9, 0.0, 2023-09-14 10:50:37.947
43.0, -10.594726871815547, 187500.0, 187500.0, 187500.0, 187500.0, 187500.0, 187500.0, 187500.0, 0.03, -0.016, 1.004, 192.0, 0.0, 0.0, 0.0, 0.0, 0.0, 0.0, 0.0, 0.0, 0.0, 1.694681437947802E9, 0.0, 2023-09-14 10:50:37.947
44.0, -15.534462396438409, 187500.0, 187500.0, 187500.0, 187500.0, 187500.0, 187500.0, 187500.0, 0.03, -0.016, 1.004, 192.0, 0.0, 0.0, 0.0, 0.0, 0.0, 0.0, 0.0, 0.0, 0.0, 1.6946814379478261E9, 0.0, 2023-09-14 10:50:37.947
45.0, -33.72878238305836, 187500.0, 187500.0, 187500.0, 187500.0, 187500.0, 187500.0, 187500.0, 0.03, -0.016, 1.004, 192.0, 0.0, 0.0, 0.0, 0.0, 0.0, 0.0, 0.0, 0.0, 0.0, 1.6946814379478517E9, 0.0, 2023-09-14 10:50:37.947
46.0, -37.84150336283486, 187500.0, 187500.0, 187500.0, 187500.0, 187500.0, 187500.0, 187500.0, 0.03, -0.016, 1.004, 192.0, 0.0, 0.0, 0.0, 0.0, 0.0, 0.0, 0.0, 0.0, 0.0, 1.6946814379478755E9, 0.0, 2023-09-14 10:50:37.947
47.0, -38.02031731847731, 187500.0, 187500.0, 187500.0, 187500.0, 187500.0, 187500.0, 187500.0, 0.03, -0.016, 1.004, 192.0, 0.0, 0.0, 0.0, 0.0, 0.0, 0.0, 0.0, 0.0, 0.0, 1.6946814379478996E9, 0.0, 2023-09-14 10:50:37.947
48.0, -33.10293353830976, 187500.0, 187500.0, 187500.0, 187500.0, 187500.0, 187500.0, 187500.0, 0.03, -0.016, 1.004, 192.0, 0.0, 0.0, 0.0, 0.0, 0.0, 0.0, 0.0, 0.0, 0.0, 1.694681437947924E9, 0.0, 2023-09-14 10:50:37.947
49.0, -14.774503084957969, 187500.0, 187500.0, 187500.0, 187500.0, 187500.0, 187500.0, 187500.0, 0.032, -0.018000000000000002, 1.002, 192.0, 1.0, 0.0, 255.0, 112.0, 31.0, 80.0, 0.0, 0.0, 0.0, 1.694681437947948E9, 0.0, 2023-09-14 10:50:37.947
50.0, -10.34885768280717, 187500.0, 187500.0, 187500.0, 187500.0, 187500.0, 187500.0, 187500.0, 0.032, -0.018000000000000002, 1.002, 192.0, 0.0, 0.0, 0.0, 0.0, 0.0, 0.0, 0.0, 0.0, 0.0, 1.6946814379479733E9, 0.0, 2023-09-14 10:50:37.947
51.0, -10.259450704985941, 187500.0, 187500.0, 187500.0, 187500.0, 187500.0, 187500.0, 187500.0, 0.032, -0.018000000000000002, 1.002, 192.0, 0.0, 0.0, 0.0, 0.0, 0.0, 0.0, 0.0, 0.0, 0.0, 1.6946814379480217E9, 0.0, 2023-09-14 10:50:37.948
52.0, -15.333296696340645, 187500.0, 187500.0, 187500.0, 187500.0, 187500.0, 187500.0, 187500.0, 0.032, -0.018000000000000002, 1.002, 192.0, 0.0, 0.0, 0.0, 0.0, 0.0, 0.0, 0.0, 0.0, 0.0, 1.6946814379480467E9, 0.0, 2023-09-14 10:50:37.948
53.0, -33.92994808315612, 187500.0, 187500.0, 187500.0, 187500.0, 187500.0, 187500.0, 187500.0, 0.032, -0.018000000000000002, 1.002, 192.0, 0.0, 0.0, 0.0, 0.0, 0.0, 0.0, 0.0, 0.0, 0.0, 1.6946814379480708E9, 0.0, 2023-09-14 10:50:37.948
54.0, -38.04266906293262, 187500.0, 187500.0, 187500.0, 187500.0, 187500.0, 187500.0, 187500.0, 0.032, -0.018000000000000002, 1.002, 192.0, 0.0, 0.0, 0.0, 0.0, 0.0, 0.0, 0.0, 0.0, 0.0, 1.6946814379480948E9, 0.0, 2023-09-14 10:50:37.948
55.0, -38.06502080738793, 187500.0, 187500.0, 187500.0, 187500.0, 187500.0, 187500.0, 187500.0, 0.032, -0.018000000000000002, 1.002, 192.0, 0.0, 0.0, 0.0, 0.0, 0.0, 0.0, 0.0, 0.0, 0.0, 1.6946814379481187E9, 0.0, 2023-09-14 10:50:37.948
56.0, -33.48291319404998, 187500.0, 187500.0, 187500.0, 187500.0, 187500.0, 187500.0, 187500.0, 0.032, -0.018000000000000002, 1.002, 192.0, 0.0, 0.0, 0.0, 0.0, 0.0, 0.0, 0.0, 0.0, 0.0, 1.6946814379481428E9, 0.0, 2023-09-14 10:50:37.948
57.0, -14.595689129315511, 187500.0, 187500.0, 187500.0, 187500.0, 187500.0, 187500.0, 187500.0, 0.032, -0.018000000000000002, 1.002, 192.0, 0.0, 0.0, 0.0, 0.0, 0.0, 0.0, 0.0, 0.0, 0.0, 1.6946814379481668E9, 0.0, 2023-09-14 10:50:37.948
58.0, -10.304154193896556, 187500.0, 187500.0, 187500.0, 187500.0, 187500.0, 187500.0, 187500.0, 0.032, -0.018000000000000002, 1.002, 192.0, 0.0, 0.0, 0.0, 0.0, 0.0, 0.0, 0.0, 0.0, 0.0, 1.6946814379481912E9, 0.0, 2023-09-14 10:50:37.948
59.0, -10.102988493798792, 187500.0, 187500.0, 187500.0, 187500.0, 187500.0, 187500.0, 187500.0, 0.032, -0.022, 1.0, 192.0, 1.0, 0.0, 255.0, 80.0, 31.0, 64.0, 0.0, 0.0, 0.0, 1.6946814379482152E9, 0.0, 2023-09-14 10:50:37.948
60.0, -15.109779251787574, 187500.0, 187500.0, 187500.0, 187500.0, 187500.0, 187500.0, 187500.0, 0.032, -0.022, 1.0, 192.0, 0.0, 0.0, 0.0, 0.0, 0.0, 0.0, 0.0, 0.0, 0.0, 1.6946814379482405E9, 0.0, 2023-09-14 10:50:37.948
61.0, -33.39350621622875, 187500.0, 187500.0, 187500.0, 187500.0, 187500.0, 187500.0, 187500.0, 0.032, -0.022, 1.0, 192.0, 0.0, 0.0, 0.0, 0.0, 0.0, 0.0, 0.0, 0.0, 0.0, 1.6946814379482644E9, 0.0, 2023-09-14 10:50:37.948
62.0, -37.9756138295667, 187500.0, 187500.0, 187500.0, 187500.0, 187500.0, 187500.0, 187500.0, 0.032, -0.022, 1.0, 192.0, 0.0, 0.0, 0.0, 0.0, 0.0, 0.0, 0.0, 0.0, 0.0, 1.6946814379482887E9, 0.0, 2023-09-14 10:50:37.948
63.0, -38.445000463128146, 187500.0, 187500.0, 187500.0, 187500.0, 187500.0, 187500.0, 187500.0, 0.032, -0.022, 1.0, 192.0, 0.0, 0.0, 0.0, 0.0, 0.0, 0.0, 0.0, 0.0, 0.0, 1.6946814379483128E9, 0.0, 2023-09-14 10:50:37.948
64.0, -33.505264938505285, 187500.0, 187500.0, 187500.0, 187500.0, 187500.0, 187500.0, 187500.0, 0.032, -0.022, 1.0, 192.0, 0.0, 0.0, 0.0, 0.0, 0.0, 0.0, 0.0, 0.0, 0.0, 1.6946814379483376E9, 0.0, 2023-09-14 10:50:37.948
65.0, -14.796854829413276, 187500.0, 187500.0, 187500.0, 187500.0, 187500.0, 187500.0, 187500.0, 0.032, -0.022, 1.0, 192.0, 0.0, 0.0, 0.0, 0.0, 0.0, 0.0, 0.0, 0.0, 0.0, 1.694681437948362E9, 0.0, 2023-09-14 10:50:37.948
66.0, -10.482968149539012, 187500.0, 187500.0, 187500.0, 187500.0, 187500.0, 187500.0, 187500.0, 0.032, -0.022, 1.0, 192.0, 0.0, 0.0, 0.0, 0.0, 0.0, 0.0, 0.0, 0.0, 0.0, 1.694681437948387E9, 0.0, 2023-09-14 10:50:37.948
67.0, -10.34885768280717, 187500.0, 187500.0, 187500.0, 187500.0, 187500.0, 187500.0, 187500.0, 0.032, -0.022, 1.0, 192.0, 0.0, 0.0, 0.0, 0.0, 0.0, 0.0, 0.0, 0.0, 0.0, 1.694681437948439E9, 0.0, 2023-09-14 10:50:37.948
68.0, -15.06507576287696, 187500.0, 187500.0, 187500.0, 187500.0, 187500.0, 187500.0, 187500.0, 0.032, -0.022, 1.0, 192.0, 0.0, 0.0, 0.0, 0.0, 0.0, 0.0, 0.0, 0.0, 0.0, 1.694681437948481E9, 0.0, 2023-09-14 10:50:37.948
69.0, -34.01935506097735, 187500.0, 187500.0, 187500.0, 187500.0, 187500.0, 187500.0, 187500.0, 0.034, -0.02, 1.002, 192.0, 1.0, 16.0, 255.0, 96.0, 31.0, 80.0, 0.0, 0.0, 0.0, 1.694681437948532E9, 0.0, 2023-09-14 10:50:37.948
70.0, -38.04266906293262, 187500.0, 187500.0, 187500.0, 187500.0, 187500.0, 187500.0, 187500.0, 0.034, -0.02, 1.002, 192.0, 0.0, 0.0, 0.0, 0.0, 0.0, 0.0, 0.0, 0.0, 0.0, 1.6946814379485807E9, 0.0, 2023-09-14 10:50:37.948
71.0, -37.79679987392424, 187500.0, 187500.0, 187500.0, 187500.0, 187500.0, 187500.0, 187500.0, 0.034, -0.02, 1.002, 192.0, 0.0, 0.0, 0.0, 0.0, 0.0, 0.0, 0.0, 0.0, 0.0, 1.694681437948629E9, 0.0, 2023-09-14 10:50:37.948
72.0, -32.94647132712261, 187500.0, 187500.0, 187500.0, 187500.0, 187500.0, 187500.0, 187500.0, 0.034, -0.02, 1.002, 192.0, 0.0, 0.0, 0.0, 0.0, 0.0, 0.0, 0.0, 0.0, 0.0, 1.694681437948666E9, 0.0, 2023-09-14 10:50:37.948
73.0, -14.573337384860205, 187500.0, 187500.0, 187500.0, 187500.0, 187500.0, 187500.0, 187500.0, 0.034, -0.02, 1.002, 192.0, 0.0, 0.0, 0.0, 0.0, 0.0, 0.0, 0.0, 0.0, 0.0, 1.6946814379487023E9, 0.0, 2023-09-14 10:50:37.948
74.0, -10.34885768280717, 187500.0, 187500.0, 187500.0, 187500.0, 187500.0, 187500.0, 187500.0, 0.034, -0.02, 1.002, 192.0, 0.0, 0.0, 0.0, 0.0, 0.0, 0.0, 0.0, 0.0, 0.0, 1.6946814379487405E9, 0.0, 2023-09-14 10:50:37.948
75.0, -10.147691982709407, 187500.0, 187500.0, 187500.0, 187500.0, 187500.0, 187500.0, 187500.0, 0.034, -0.02, 1.002, 192.0, 0.0, 0.0, 0.0, 0.0, 0.0, 0.0, 0.0, 0.0, 0.0, 1.6946814379487813E9, 0.0, 2023-09-14 10:50:37.948
76.0, -15.400351929706567, 187500.0, 187500.0, 187500.0, 187500.0, 187500.0, 187500.0, 187500.0, 0.034, -0.02, 1.002, 192.0, 0.0, 0.0, 0.0, 0.0, 0.0, 0.0, 0.0, 0.0, 0.0, 1.6946814379488196E9, 0.0, 2023-09-14 10:50:37.948
77.0, -34.1758172721645, 187500.0, 187500.0, 187500.0, 187500.0, 187500.0, 187500.0, 187500.0, 0.034, -0.02, 1.002, 192.0, 0.0, 0.0, 0.0, 0.0, 0.0, 0.0, 0.0, 0.0, 0.0, 1.6946814379488573E9, 0.0, 2023-09-14 10:50:37.948
78.0, -38.377945229762226, 187500.0, 187500.0, 187500.0, 187500.0, 187500.0, 187500.0, 187500.0, 0.034, -0.02, 1.002, 192.0, 0.0, 0.0, 0.0, 0.0, 0.0, 0.0, 0.0, 0.0, 0.0, 1.6946814379488966E9, 0.0, 2023-09-14 10:50:37.948
79.0, -38.02031731847731, 187500.0, 187500.0, 187500.0, 187500.0, 187500.0, 187500.0, 187500.0, 0.038, -0.018000000000000002, 1.002, 192.0, 1.0, 48.0, 255.0, 112.0, 31.0, 80.0, 0.0, 0.0, 0.0, 1.6946814379489381E9, 0.0, 2023-09-14 10:50:37.948
80.0, -33.12528528276507, 187500.0, 187500.0, 187500.0, 187500.0, 187500.0, 187500.0, 187500.0, 0.038, -0.018000000000000002, 1.002, 192.0, 0.0, 0.0, 0.0, 0.0, 0.0, 0.0, 0.0, 0.0, 0.0, 1.694681437948981E9, 0.0, 2023-09-14 10:50:37.948
81.0, -14.796854829413276, 187500.0, 187500.0, 187500.0, 187500.0, 187500.0, 187500.0, 187500.0, 0.038, -0.018000000000000002, 1.002, 192.0, 0.0, 0.0, 0.0, 0.0, 0.0, 0.0, 0.0, 0.0, 0.0, 1.6946814379490218E9, 0.0, 2023-09-14 10:50:37.949
82.0, -10.415912916173092, 187500.0, 187500.0, 187500.0, 187500.0, 187500.0, 187500.0, 187500.0, 0.038, -0.018000000000000002, 1.002, 192.0, 0.0, 0.0, 0.0, 0.0, 0.0, 0.0, 0.0, 0.0, 0.0, 1.6946814379491282E9, 0.0, 2023-09-14 10:50:37.949
83.0, -10.527671638449627, 187500.0, 187500.0, 187500.0, 187500.0, 187500.0, 187500.0, 187500.0, 0.038, -0.018000000000000002, 1.002, 192.0, 0.0, 0.0, 0.0, 0.0, 0.0, 0.0, 0.0, 0.0, 0.0, 1.6946814379491692E9, 0.0, 2023-09-14 10:50:37.949
84.0, -15.467407163072487, 187500.0, 187500.0, 187500.0, 187500.0, 187500.0, 187500.0, 187500.0, 0.038, -0.018000000000000002, 1.002, 192.0, 0.0, 0.0, 0.0, 0.0, 0.0, 0.0, 0.0, 0.0, 0.0, 1.6946814379492092E9, 0.0, 2023-09-14 10:50:37.949
85.0, -33.79583761642428, 187500.0, 187500.0, 187500.0, 187500.0, 187500.0, 187500.0, 187500.0, 0.038, -0.018000000000000002, 1.002, 192.0, 0.0, 0.0, 0.0, 0.0, 0.0, 0.0, 0.0, 0.0, 0.0, 1.69468143794925E9, 0.0, 2023-09-14 10:50:37.949
86.0, -38.310889996396305, 187500.0, 187500.0, 187500.0, 187500.0, 187500.0, 187500.0, 187500.0, 0.038, -0.018000000000000002, 1.002, 192.0, 0.0, 0.0, 0.0, 0.0, 0.0, 0.0, 0.0, 0.0, 0.0, 1.694681437949289E9, 0.0, 2023-09-14 10:50:37.949
87.0, -38.176779529664465, 187500.0, 187500.0, 187500.0, 187500.0, 187500.0, 187500.0, 187500.0, 0.038, -0.018000000000000002, 1.002, 192.0, 0.0, 0.0, 0.0, 0.0, 0.0, 0.0, 0.0, 0.0, 0.0, 1.6946814379493315E9, 0.0, 2023-09-14 10:50:37.949
88.0, -33.41585796068406, 187500.0, 187500.0, 187500.0, 187500.0, 187500.0, 187500.0, 187500.0, 0.038, -0.018000000000000002, 1.002, 192.0, 0.0, 0.0, 0.0, 0.0, 0.0, 0.0, 0.0, 0.0, 0.0, 1.6946814379493732E9, 0.0, 2023-09-14 10:50:37.949
89.0, -14.394523429217749, 187500.0, 187500.0, 187500.0, 187500.0, 187500.0, 187500.0, 187500.0, 0.034, -0.02, 1.002, 192.0, 1.0, 16.0, 255.0, 96.0, 31.0, 80.0, 0.0, 0.0, 0.0, 1.6946814379494145E9, 0.0, 2023-09-14 10:50:37.949
90.0, -10.080636749343485, 187500.0, 187500.0, 187500.0, 187500.0, 187500.0, 187500.0, 187500.0, 0.034, -0.02, 1.002, 192.0, 0.0, 0.0, 0.0, 0.0, 0.0, 0.0, 0.0, 0.0, 0.0, 1.6946814379494605E9, 0.0, 2023-09-14 10:50:37.949
91.0, -10.080636749343485, 187500.0, 187500.0, 187500.0, 187500.0, 187500.0, 187500.0, 187500.0, 0.034, -0.02, 1.002, 192.0, 0.0, 0.0, 0.0, 0.0, 0.0, 0.0, 0.0, 0.0, 0.0, 1.6946814379495003E9, 0.0, 2023-09-14 10:50:37.949
92.0, -15.400351929706567, 187500.0, 187500.0, 187500.0, 187500.0, 187500.0, 187500.0, 187500.0, 0.034, -0.02, 1.002, 192.0, 0.0, 0.0, 0.0, 0.0, 0.0, 0.0, 0.0, 0.0, 0.0, 1.694681437949546E9, 0.0, 2023-09-14 10:50:37.949
93.0, -33.79583761642428, 187500.0, 187500.0, 187500.0, 187500.0, 187500.0, 187500.0, 187500.0, 0.034, -0.02, 1.002, 192.0, 0.0, 0.0, 0.0, 0.0, 0.0, 0.0, 0.0, 0.0, 0.0, 1.6946814379495897E9, 0.0, 2023-09-14 10:50:37.949
94.0, -38.08737255184324, 187500.0, 187500.0, 187500.0, 187500.0, 187500.0, 187500.0, 187500.0, 0.034, -0.02, 1.002, 192.0, 0.0, 0.0, 0.0, 0.0, 0.0, 0.0, 0.0, 0.0, 0.0, 1.6946814379496298E9, 0.0, 2023-09-14 10:50:37.949
95.0, -38.15442778520916, 187500.0, 187500.0, 187500.0, 187500.0, 187500.0, 187500.0, 187500.0, 0.034, -0.02, 1.002, 192.0, 0.0, 0.0, 0.0, 0.0, 0.0, 0.0, 0.0, 0.0, 0.0, 1.6946814379496808E9, 0.0, 2023-09-14 10:50:37.949
96.0, -33.304099238407524, 187500.0, 187500.0, 187500.0, 187500.0, 187500.0, 187500.0, 187500.0, 0.034, -0.02, 1.002, 192.0, 0.0, 0.0, 0.0, 0.0, 0.0, 0.0, 0.0, 0.0, 0.0, 1.6946814379497335E9, 0.0, 2023-09-14 10:50:37.949
97.0, -14.886261807234504, 187500.0, 187500.0, 187500.0, 187500.0, 187500.0, 187500.0, 187500.0, 0.034, -0.02, 1.002, 192.0, 0.0, 0.0, 0.0, 0.0, 0.0, 0.0, 0.0, 0.0, 0.0, 1.6946814379499533E9, 0.0, 2023-09-14 10:50:37.949
98.0, -10.326505938351863, 187500.0, 187500.0, 187500.0, 187500.0, 187500.0, 187500.0, 187500.0, 0.034, -0.022, 1.004, 192.0, 1.0, 16.0, 255.0, 80.0, 31.0, 96.0, 0.0, 0.0, 0.0, 1.6946814379500008E9, 0.0, 2023-09-14 10:50:37.950
99.0, -10.102988493798792, 187500.0, 187500.0, 187500.0, 187500.0, 187500.0, 187500.0, 187500.0, 0.034, -0.022, 1.004, 192.0, 0.0, 0.0, 0.0, 0.0, 0.0, 0.0, 0.0, 0.0, 0.0, 1.6946814379500551E9, 0.0, 2023-09-14 10:50:37.950
100.0, -15.020372273966347, 187500.0, 187500.0, 187500.0, 187500.0, 187500.0, 187500.0, 187500.0, 0.034, -0.022, 1.004, 192.0, 0.0, 0.0, 0.0, 0.0, 0.0, 0.0, 0.0, 0.0, 0.0, 1.6946814379501007E9, 0.0, 2023-09-14 10:50:37.950
101.0, -33.617023660781825, 187500.0, 187500.0, 187500.0, 187500.0, 187500.0, 187500.0, 187500.0, 0.034, -0.022, 1.004, 192.0, 0.0, 0.0, 0.0, 0.0, 0.0, 0.0, 0.0, 0.0, 0.0, 1.6946814379501438E9, 0.0, 2023-09-14 10:50:37.950
102.0, -38.243834763030385, 187500.0, 187500.0, 187500.0, 187500.0, 187500.0, 187500.0, 187500.0, 0.034, -0.022, 1.004, 192.0, 0.0, 0.0, 0.0, 0.0, 0.0, 0.0, 0.0, 0.0, 0.0, 1.6946814379501843E9, 0.0, 2023-09-14 10:50:37.950
103.0, -38.15442778520916, 187500.0, 187500.0, 187500.0, 187500.0, 187500.0, 187500.0, 187500.0, 0.034, -0.022, 1.004, 192.0, 0.0, 0.0, 0.0, 0.0, 0.0, 0.0, 0.0, 0.0, 0.0, 1.6946814379502223E9, 0.0, 2023-09-14 10:50:37.950
104.0, -33.01352656048853, 187500.0, 187500.0, 187500.0, 187500.0, 187500.0, 187500.0, 187500.0, 0.034, -0.022, 1.004, 192.0, 0.0, 0.0, 0.0, 0.0, 0.0, 0.0, 0.0, 0.0, 0.0, 1.6946814379502609E9, 0.0, 2023-09-14 10:50:37.950
105.0, -14.863910062779196, 187500.0, 187500.0, 187500.0, 187500.0, 187500.0, 187500.0, 187500.0, 0.034, -0.022, 1.004, 192.0, 0.0, 0.0, 0.0, 0.0, 0.0, 0.0, 0.0, 0.0, 0.0, 1.694681437950298E9, 0.0, 2023-09-14 10:50:37.950
106.0, -10.28180244944125, 187500.0, 187500.0, 187500.0, 187500.0, 187500.0, 187500.0, 187500.0, 0.034, -0.022, 1.004, 192.0, 0.0, 0.0, 0.0, 0.0, 0.0, 0.0, 0.0, 0.0, 0.0, 1.694681437950338E9, 0.0, 2023-09-14 10:50:37.950
107.0, -10.371209427262476, 187500.0, 187500.0, 187500.0, 187500.0, 187500.0, 187500.0, 187500.0, 0.034, -0.022, 1.004, 192.0, 0.0, 0.0, 0.0, 0.0, 0.0, 0.0, 0.0, 0.0, 0.0, 1.6946814384267178E9, 0.0, 2023-09-14 10:50:38.426
108.0, -15.355648440795951, 187500.0, 187500.0, 187500.0, 187500.0, 187500.0, 187500.0, 187500.0, 0.034, -0.024, 1.006, 192.0, 1.0, 16.0, 255.0, 64.0, 31.0, 112.0, 0.0, 0.0, 0.0, 1.694681438426868E9, 0.0, 2023-09-14 10:50:38.426
109.0, -34.10876203879858, 187500.0, 187500.0, 187500.0, 187500.0, 187500.0, 187500.0, 187500.0, 0.034, -0.024, 1.006, 192.0, 0.0, 0.0, 0.0, 0.0, 0.0, 0.0, 0.0, 0.0, 0.0, 1.694681438426922E9, 0.0, 2023-09-14 10:50:38.426
110.0, -38.243834763030385, 187500.0, 187500.0, 187500.0, 187500.0, 187500.0, 187500.0, 187500.0, 0.034, -0.024, 1.006, 192.0, 0.0, 0.0, 0.0, 0.0, 0.0, 0.0, 0.0, 0.0, 0.0, 1.6946814384269688E9, 0.0, 2023-09-14 10:50:38.426
111.0, -38.22148301857508, 187500.0, 187500.0, 187500.0, 187500.0, 187500.0, 187500.0, 187500.0, 0.034, -0.024, 1.006, 192.0, 0.0, 0.0, 0.0, 0.0, 0.0, 0.0, 0.0, 0.0, 0.0, 1.694681438427016E9, 0.0, 2023-09-14 10:50:38.427
112.0, -33.371154471773444, 187500.0, 187500.0, 187500.0, 187500.0, 187500.0, 187500.0, 187500.0, 0.034, -0.024, 1.006, 192.0, 0.0, 0.0, 0.0, 0.0, 0.0, 0.0, 0.0, 0.0, 0.0, 1.6946814384270592E9, 0.0, 2023-09-14 10:50:38.427
113.0, -14.550985640404898, 187500.0, 187500.0, 187500.0, 187500.0, 187500.0, 187500.0, 187500.0, 0.034, -0.024, 1.006, 192.0, 0.0, 0.0, 0.0, 0.0, 0.0, 0.0, 0.0, 0.0, 0.0, 1.6946814384273615E9, 0.0, 2023-09-14 10:50:38.427
114.0, -10.19239547162002, 187500.0, 187500.0, 187500.0, 187500.0, 187500.0, 187500.0, 187500.0, 0.034, -0.024, 1.006, 192.0, 0.0, 0.0, 0.0, 0.0, 0.0, 0.0, 0.0, 0.0, 0.0, 1.6946814384274137E9, 0.0, 2023-09-14 10:50:38.427
115.0, -10.304154193896556, 187500.0, 187500.0, 187500.0, 187500.0, 187500.0, 187500.0, 187500.0, 0.034, -0.024, 1.006, 192.0, 0.0, 0.0, 0.0, 0.0, 0.0, 0.0, 0.0, 0.0, 0.0, 1.694681438427454E9, 0.0, 2023-09-14 10:50:38.427
116.0, -15.310944951885338, 187500.0, 187500.0, 187500.0, 187500.0, 187500.0, 187500.0, 187500.0, 0.034, -0.024, 1.006, 192.0, 0.0, 0.0, 0.0, 0.0, 0.0, 0.0, 0.0, 0.0, 0.0, 1.6946814384274933E9, 0.0, 2023-09-14 10:50:38.427
117.0, -33.79583761642428, 187500.0, 187500.0, 187500.0, 187500.0, 187500.0, 187500.0, 187500.0, 0.034, -0.024, 1.006, 192.0, 0.0, 0.0, 0.0, 0.0, 0.0, 0.0, 0.0, 0.0, 0.0, 1.6946814384275436E9, 0.0, 2023-09-14 10:50:38.427
118.0, -38.19913127411977, 187500.0, 187500.0, 187500.0, 187500.0, 187500.0, 187500.0, 187500.0, 0.028, -0.028, 1.006, 192.0, 0.0, 224.0, 255.0, 32.0, 31.0, 112.0, 0.0, 0.0, 0.0, 1.6946814384275925E9, 0.0, 2023-09-14 10:50:38.427
119.0, -37.90855859620078, 187500.0, 187500.0, 187500.0, 187500.0, 187500.0, 187500.0, 187500.0, 0.028, -0.028, 1.006, 192.0, 0.0, 0.0, 0.0, 0.0, 0.0, 0.0, 0.0, 0.0, 0.0, 1.694681438427642E9, 0.0, 2023-09-14 10:50:38.427
120.0, -33.01352656048853, 187500.0, 187500.0, 187500.0, 187500.0, 187500.0, 187500.0, 187500.0, 0.028, -0.028, 1.006, 192.0, 0.0, 0.0, 0.0, 0.0, 0.0, 0.0, 0.0, 0.0, 0.0, 1.6946814384276843E9, 0.0, 2023-09-14 10:50:38.427
121.0, -14.61804087377082, 187500.0, 187500.0, 187500.0, 187500.0, 187500.0, 187500.0, 187500.0, 0.028, -0.028, 1.006, 192.0, 0.0, 0.0, 0.0, 0.0, 0.0, 0.0, 0.0, 0.0, 0.0, 1.6946814384277308E9, 0.0, 2023-09-14 10:50:38.427
122.0, -9.991229771522256, 187500.0, 187500.0, 187500.0, 187500.0, 187500.0, 187500.0, 187500.0, 0.028, -0.028, 1.006, 192.0, 0.0, 0.0, 0.0, 0.0, 0.0, 0.0, 0.0, 0.0, 0.0, 1.6946814384277792E9, 0.0, 2023-09-14 10:50:38.427
123.0, -10.080636749343485, 187500.0, 187500.0, 187500.0, 187500.0, 187500.0, 187500.0, 187500.0, 0.028, -0.028, 1.006, 192.0, 0.0, 0.0, 0.0, 0.0, 0.0, 0.0, 0.0, 0.0, 0.0, 1.6946814384278314E9, 0.0, 2023-09-14 10:50:38.427
124.0, -15.243889718519418, 187500.0, 187500.0, 187500.0, 187500.0, 187500.0, 187500.0, 187500.0, 0.028, -0.028, 1.006, 192.0, 0.0, 0.0, 0.0, 0.0, 0.0, 0.0, 0.0, 0.0, 0.0, 1.6946814384278913E9, 0.0, 2023-09-14 10:50:38.427
125.0, -33.90759633870081, 187500.0, 187500.0, 187500.0, 187500.0, 187500.0, 187500.0, 187500.0, 0.028, -0.028, 1.006, 192.0, 0.0, 0.0, 0.0, 0.0, 0.0, 0.0, 0.0, 0.0, 0.0, 1.69468143842794E9, 0.0, 2023-09-14 10:50:38.427
126.0, -38.15442778520916, 187500.0, 187500.0, 187500.0, 187500.0, 187500.0, 187500.0, 187500.0, 0.028, -0.028, 1.006, 192.0, 0.0, 0.0, 0.0, 0.0, 0.0, 0.0, 0.0, 0.0, 0.0, 1.6946814384279883E9, 0.0, 2023-09-14 10:50:38.427
127.0, -38.377945229762226, 187500.0, 187500.0, 187500.0, 187500.0, 187500.0, 187500.0, 187500.0, 0.028, -0.028, 1.006, 192.0, 0.0, 0.0, 0.0, 0.0, 0.0, 0.0, 0.0, 0.0, 0.0, 1.6946814384280355E9, 0.0, 2023-09-14 10:50:38.428
128.0, -33.438209705139364, 187500.0, 187500.0, 187500.0, 187500.0, 187500.0, 187500.0, 187500.0, 0.032, -0.02, 1.006, 192.0, 1.0, 0.0, 255.0, 96.0, 31.0, 112.0, 0.0, 0.0, 0.0, 1.6946814384283328E9, 0.0, 2023-09-14 10:50:38.428
129.0, -14.774503084957969, 187500.0, 187500.0, 187500.0, 187500.0, 187500.0, 187500.0, 187500.0, 0.032, -0.02, 1.006, 192.0, 0.0, 0.0, 0.0, 0.0, 0.0, 0.0, 0.0, 0.0, 0.0, 1.6946814384283893E9, 0.0, 2023-09-14 10:50:38.428
130.0, -10.125340238254099, 187500.0, 187500.0, 187500.0, 187500.0, 187500.0, 187500.0, 187500.0, 0.032, -0.02, 1.006, 192.0, 0.0, 0.0, 0.0, 0.0, 0.0, 0.0, 0.0, 0.0, 0.0, 1.6946814384284275E9, 0.0, 2023-09-14 10:50:38.428
131.0, -10.102988493798792, 187500.0, 187500.0, 187500.0, 187500.0, 187500.0, 187500.0, 187500.0, 0.032, -0.02, 1.006, 192.0, 0.0, 0.0, 0.0, 0.0, 0.0, 0.0, 0.0, 0.0, 0.0, 1.6946814384284952E9, 0.0, 2023-09-14 10:50:38.428
132.0, -15.221537974064109, 187500.0, 187500.0, 187500.0, 187500.0, 187500.0, 187500.0, 187500.0, 0.032, -0.02, 1.006, 192.0, 0.0, 0.0, 0.0, 0.0, 0.0, 0.0, 0.0, 0.0, 0.0, 1.694681438428562E9, 0.0, 2023-09-14 10:50:38.428
133.0, -33.95229982761143, 187500.0, 187500.0, 187500.0, 187500.0, 187500.0, 187500.0, 187500.0, 0.032, -0.02, 1.006, 192.0, 0.0, 0.0, 0.0, 0.0, 0.0, 0.0, 0.0, 0.0, 0.0, 1.6946814384286098E9, 0.0, 2023-09-14 10:50:38.428
134.0, -37.88620685174547, 187500.0, 187500.0, 187500.0, 187500.0, 187500.0, 187500.0, 187500.0, 0.032, -0.02, 1.006, 192.0, 0.0, 0.0, 0.0, 0.0, 0.0, 0.0, 0.0, 0.0, 0.0, 1.6946814384286988E9, 0.0, 2023-09-14 10:50:38.428
135.0, -38.04266906293262, 187500.0, 187500.0, 187500.0, 187500.0, 187500.0, 187500.0, 187500.0, 0.032, -0.02, 1.006, 192.0, 0.0, 0.0, 0.0, 0.0, 0.0, 0.0, 0.0, 0.0, 0.0, 1.6946814384287615E9, 0.0, 2023-09-14 10:50:38.428
136.0, -33.14763702722038, 187500.0, 187500.0, 187500.0, 187500.0, 187500.0, 187500.0, 187500.0, 0.032, -0.02, 1.006, 192.0, 0.0, 0.0, 0.0, 0.0, 0.0, 0.0, 0.0, 0.0, 0.0, 1.6946814384288192E9, 0.0, 2023-09-14 10:50:38.428
137.0, -14.528633895949591, 187500.0, 187500.0, 187500.0, 187500.0, 187500.0, 187500.0, 187500.0, 0.032, -0.02, 1.006, 192.0, 0.0, 0.0, 0.0, 0.0, 0.0, 0.0, 0.0, 0.0, 0.0, 1.6946814384288447E9, 0.0, 2023-09-14 10:50:38.428
138.0, -10.34885768280717, 187500.0, 187500.0, 187500.0, 187500.0, 187500.0, 187500.0, 187500.0, 0.036000000000000004, -0.026000000000000002, 1.0, 192.0, 1.0, 32.0, 255.0, 48.0, 31.0, 64.0, 0.0, 0.0, 0.0, 1.694681438428869E9, 0.0, 2023-09-14 10:50:38.428
139.0, -10.125340238254099, 187500.0, 187500.0, 187500.0, 187500.0, 187500.0, 187500.0, 187500.0, 0.036000000000000004, -0.026000000000000002, 1.0, 192.0, 0.0, 0.0, 0.0, 0.0, 0.0, 0.0, 0.0, 0.0, 0.0, 1.6946814384288955E9, 0.0, 2023-09-14 10:50:38.428
140.0, -15.132130996242882, 187500.0, 187500.0, 187500.0, 187500.0, 187500.0, 187500.0, 187500.0, 0.036000000000000004, -0.026000000000000002, 1.0, 192.0, 0.0, 0.0, 0.0, 0.0, 0.0, 0.0, 0.0, 0.0, 0.0, 1.6946814384289196E9, 0.0, 2023-09-14 10:50:38.428
141.0, -33.66172714969244, 187500.0, 187500.0, 187500.0, 187500.0, 187500.0, 187500.0, 187500.0, 0.036000000000000004, -0.026000000000000002, 1.0, 192.0, 0.0, 0.0, 0.0, 0.0, 0.0, 0.0, 0.0, 0.0, 0.0, 1.6946814384289434E9, 0.0, 2023-09-14 10:50:38.428
142.0, -38.08737255184324, 187500.0, 187500.0, 187500.0, 187500.0, 187500.0, 187500.0, 187500.0, 0.036000000000000004, -0.026000000000000002, 1.0, 192.0, 0.0, 0.0, 0.0, 0.0, 0.0, 0.0, 0.0, 0.0, 0.0, 1.6946814384289672E9, 0.0, 2023-09-14 10:50:38.428
143.0, -38.176779529664465, 187500.0, 187500.0, 187500.0, 187500.0, 187500.0, 187500.0, 187500.0, 0.036000000000000004, -0.026000000000000002, 1.0, 192.0, 0.0, 0.0, 0.0, 0.0, 0.0, 0.0, 0.0, 0.0, 0.0, 1.694681438429038E9, 0.0, 2023-09-14 10:50:38.429
144.0, -33.237044005041604, 187500.0, 187500.0, 187500.0, 187500.0, 187500.0, 187500.0, 187500.0, 0.036000000000000004, -0.026000000000000002, 1.0, 192.0, 0.0, 0.0, 0.0, 0.0, 0.0, 0.0, 0.0, 0.0, 0.0, 1.6946814384290628E9, 0.0, 2023-09-14 10:50:38.429
145.0, -14.550985640404898, 187500.0, 187500.0, 187500.0, 187500.0, 187500.0, 187500.0, 187500.0, 0.036000000000000004, -0.026000000000000002, 1.0, 192.0, 0.0, 0.0, 0.0, 0.0, 0.0, 0.0, 0.0, 0.0, 0.0, 1.6946814384290867E9, 0.0, 2023-09-14 10:50:38.429
146.0, -10.237098960530634, 187500.0, 187500.0, 187500.0, 187500.0, 187500.0, 187500.0, 187500.0, 0.036000000000000004, -0.026000000000000002, 1.0, 192.0, 0.0, 0.0, 0.0, 0.0, 0.0, 0.0, 0.0, 0.0, 0.0, 1.6946814384291108E9, 0.0, 2023-09-14 10:50:38.429
147.0, -10.415912916173092, 187500.0, 187500.0, 187500.0, 187500.0, 187500.0, 187500.0, 187500.0, 0.036000000000000004, -0.026000000000000002, 1.0, 192.0, 0.0, 0.0, 0.0, 0.0, 0.0, 0.0, 0.0, 0.0, 0.0, 1.6946814384291344E9, 0.0, 2023-09-14 10:50:38.429
148.0, -15.288593207430031, 187500.0, 187500.0, 187500.0, 187500.0, 187500.0, 187500.0, 187500.0, 0.034, -0.026000000000000002, 0.996, 192.0, 1.0, 16.0, 255.0, 48.0, 31.0, 32.0, 0.0, 0.0, 0.0, 1.6946814384291584E9, 0.0, 2023-09-14 10:50:38.429
149.0, -33.99700331652204, 187500.0, 187500.0, 187500.0, 187500.0, 187500.0, 187500.0, 187500.0, 0.034, -0.026000000000000002, 0.996, 192.0, 0.0, 0.0, 0.0, 0.0, 0.0, 0.0, 0.0, 0.0, 0.0, 1.694681438429184E9, 0.0, 2023-09-14 10:50:38.429
150.0, -38.02031731847731, 187500.0, 187500.0, 187500.0, 187500.0, 187500.0, 187500.0, 187500.0, 0.034, -0.026000000000000002, 0.996, 192.0, 0.0, 0.0, 0.0, 0.0, 0.0, 0.0, 0.0, 0.0, 0.0, 1.6946814384292085E9, 0.0, 2023-09-14 10:50:38.429
151.0, -38.377945229762226, 187500.0, 187500.0, 187500.0, 187500.0, 187500.0, 187500.0, 187500.0, 0.034, -0.026000000000000002, 0.996, 192.0, 0.0, 0.0, 0.0, 0.0, 0.0, 0.0, 0.0, 0.0, 0.0, 1.6946814384292345E9, 0.0, 2023-09-14 10:50:38.429
152.0, -33.505264938505285, 187500.0, 187500.0, 187500.0, 187500.0, 187500.0, 187500.0, 187500.0, 0.034, -0.026000000000000002, 0.996, 192.0, 0.0, 0.0, 0.0, 0.0, 0.0, 0.0, 0.0, 0.0, 0.0, 1.6946814384292583E9, 0.0, 2023-09-14 10:50:38.429
153.0, -14.662744362681433, 187500.0, 187500.0, 187500.0, 187500.0, 187500.0, 187500.0, 187500.0, 0.034, -0.026000000000000002, 0.996, 192.0, 0.0, 0.0, 0.0, 0.0, 0.0, 0.0, 0.0, 0.0, 0.0, 1.694681438429291E9, 0.0, 2023-09-14 10:50:38.429
154.0, -10.035933260432872, 187500.0, 187500.0, 187500.0, 187500.0, 187500.0, 187500.0, 187500.0, 0.034, -0.026000000000000002, 0.996, 192.0, 0.0, 0.0, 0.0, 0.0, 0.0, 0.0, 0.0, 0.0, 0.0, 1.694681438429329E9, 0.0, 2023-09-14 10:50:38.429
155.0, -10.125340238254099, 187500.0, 187500.0, 187500.0, 187500.0, 187500.0, 187500.0, 187500.0, 0.034, -0.026000000000000002, 0.996, 192.0, 0.0, 0.0, 0.0, 0.0, 0.0, 0.0, 0.0, 0.0, 0.0, 1.694681438429361E9, 0.0, 2023-09-14 10:50:38.429
156.0, -15.489758907527795, 187500.0, 187500.0, 187500.0, 187500.0, 187500.0, 187500.0, 187500.0, 0.034, -0.026000000000000002, 0.996, 192.0, 0.0, 0.0, 0.0, 0.0, 0.0, 0.0, 0.0, 0.0, 0.0, 1.694681438429391E9, 0.0, 2023-09-14 10:50:38.429
157.0, -34.06405854988796, 187500.0, 187500.0, 187500.0, 187500.0, 187500.0, 187500.0, 187500.0, 0.034, -0.026000000000000002, 0.996, 192.0, 0.0, 0.0, 0.0, 0.0, 0.0, 0.0, 0.0, 0.0, 0.0, 1.6946814384294205E9, 0.0, 2023-09-14 10:50:38.429
158.0, -38.646166163225914, 187500.0, 187500.0, 187500.0, 187500.0, 187500.0, 187500.0, 187500.0, 0.04, -0.022, 0.998, 192.0, 1.0, 64.0, 255.0, 80.0, 31.0, 48.0, 0.0, 0.0, 0.0, 1.694681438429472E9, 0.0, 2023-09-14 10:50:38.429
159.0, -38.310889996396305, 187500.0, 187500.0, 187500.0, 187500.0, 187500.0, 187500.0, 187500.0, 0.04, -0.022, 0.998, 192.0, 0.0, 0.0, 0.0, 0.0, 0.0, 0.0, 0.0, 0.0, 0.0, 1.6946814384295733E9, 0.0, 2023-09-14 10:50:38.429
160.0, -33.08058179385445, 187500.0, 187500.0, 187500.0, 187500.0, 187500.0, 187500.0, 187500.0, 0.04, -0.022, 0.998, 192.0, 0.0, 0.0, 0.0, 0.0, 0.0, 0.0, 0.0, 0.0, 0.0, 1.694681438429618E9, 0.0, 2023-09-14 10:50:38.429
161.0, -14.68509610713674, 187500.0, 187500.0, 187500.0, 187500.0, 187500.0, 187500.0, 187500.0, 0.04, -0.022, 0.998, 192.0, 0.0, 0.0, 0.0, 0.0, 0.0, 0.0, 0.0, 0.0, 0.0, 1.694681438429662E9, 0.0, 2023-09-14 10:50:38.429
162.0, -10.415912916173092, 187500.0, 187500.0, 187500.0, 187500.0, 187500.0, 187500.0, 187500.0, 0.04, -0.022, 0.998, 192.0, 0.0, 0.0, 0.0, 0.0, 0.0, 0.0, 0.0, 0.0, 0.0, 1.6946814384297009E9, 0.0, 2023-09-14 10:50:38.429
163.0, -10.482968149539012, 187500.0, 187500.0, 187500.0, 187500.0, 187500.0, 187500.0, 187500.0, 0.04, -0.022, 0.998, 192.0, 0.0, 0.0, 0.0, 0.0, 0.0, 0.0, 0.0, 0.0, 0.0, 1.6946814384297452E9, 0.0, 2023-09-14 10:50:38.429
164.0, -15.37800018525126, 187500.0, 187500.0, 187500.0, 187500.0, 187500.0, 187500.0, 187500.0, 0.04, -0.022, 0.998, 192.0, 0.0, 0.0, 0.0, 0.0, 0.0, 0.0, 0.0, 0.0, 0.0, 1.694681438429788E9, 0.0, 2023-09-14 10:50:38.429
165.0, -33.684078894147746, 187500.0, 187500.0, 187500.0, 187500.0, 187500.0, 187500.0, 187500.0, 0.04, -0.022, 0.998, 192.0, 0.0, 0.0, 0.0, 0.0, 0.0, 0.0, 0.0, 0.0, 0.0, 1.694681438429826E9, 0.0, 2023-09-14 10:50:38.429
166.0, -37.930910340656084, 187500.0, 187500.0, 187500.0, 187500.0, 187500.0, 187500.0, 187500.0, 0.04, -0.022, 0.998, 192.0, 0.0, 0.0, 0.0, 0.0, 0.0, 0.0, 0.0, 0.0, 0.0, 1.6946814384298637E9, 0.0, 2023-09-14 10:50:38.429
167.0, -37.88620685174547, 187500.0, 187500.0, 187500.0, 187500.0, 187500.0, 187500.0, 187500.0, 0.04, -0.022, 0.998, 192.0, 0.0, 0.0, 0.0, 0.0, 0.0, 0.0, 0.0, 0.0, 0.0, 1.6946814384299064E9, 0.0, 2023-09-14 10:50:38.429
168.0, -33.08058179385445, 187500.0, 187500.0, 187500.0, 187500.0, 187500.0, 187500.0, 187500.0, 0.034, -0.022, 0.998, 192.0, 1.0, 16.0, 255.0, 80.0, 31.0, 48.0, 0.0, 0.0, 0.0, 1.6946814384299505E9, 0.0, 2023-09-14 10:50:38.429
169.0, -14.68509610713674, 187500.0, 187500.0, 187500.0, 187500.0, 187500.0, 187500.0, 187500.0, 0.034, -0.022, 0.998, 192.0, 0.0, 0.0, 0.0, 0.0, 0.0, 0.0, 0.0, 0.0, 0.0, 1.6946814384299967E9, 0.0, 2023-09-14 10:50:38.429
170.0, -9.96887802706695, 187500.0, 187500.0, 187500.0, 187500.0, 187500.0, 187500.0, 187500.0, 0.034, -0.022, 0.998, 192.0, 0.0, 0.0, 0.0, 0.0, 0.0, 0.0, 0.0, 0.0, 0.0, 1.6946814384300408E9, 0.0, 2023-09-14 10:50:38.430
171.0, -10.080636749343485, 187500.0, 187500.0, 187500.0, 187500.0, 187500.0, 187500.0, 187500.0, 0.034, -0.022, 0.998, 192.0, 0.0, 0.0, 0.0, 0.0, 0.0, 0.0, 0.0, 0.0, 0.0, 1.6946814384300845E9, 0.0, 2023-09-14 10:50:38.430
172.0, -15.668572863170251, 187500.0, 187500.0, 187500.0, 187500.0, 187500.0, 187500.0, 187500.0, 0.034, -0.022, 0.998, 192.0, 0.0, 0.0, 0.0, 0.0, 0.0, 0.0, 0.0, 0.0, 0.0, 1.694681438430126E9, 0.0, 2023-09-14 10:50:38.430
173.0, -33.99700331652204, 187500.0, 187500.0, 187500.0, 187500.0, 187500.0, 187500.0, 187500.0, 0.034, -0.022, 0.998, 192.0, 0.0, 0.0, 0.0, 0.0, 0.0, 0.0, 0.0, 0.0, 0.0, 1.6946814384301748E9, 0.0, 2023-09-14 10:50:38.430
174.0, -38.243834763030385, 187500.0, 187500.0, 187500.0, 187500.0, 187500.0, 187500.0, 187500.0, 0.034, -0.022, 0.998, 192.0, 0.0, 0.0, 0.0, 0.0, 0.0, 0.0, 0.0, 0.0, 0.0, 1.6946814384303105E9, 0.0, 2023-09-14 10:50:38.430
175.0, -38.243834763030385, 187500.0, 187500.0, 187500.0, 187500.0, 187500.0, 187500.0, 187500.0, 0.034, -0.022, 0.998, 192.0, 0.0, 0.0, 0.0, 0.0, 0.0, 0.0, 0.0, 0.0, 0.0, 1.6946814384303555E9, 0.0, 2023-09-14 10:50:38.430
176.0, -33.16998877167568, 187500.0, 187500.0, 187500.0, 187500.0, 187500.0, 187500.0, 187500.0, 0.034, -0.022, 0.998, 192.0, 0.0, 0.0, 0.0, 0.0, 0.0, 0.0, 0.0, 0.0, 0.0, 1.6946814384303968E9, 0.0, 2023-09-14 10:50:38.430
177.0, -14.774503084957969, 187500.0, 187500.0, 187500.0, 187500.0, 187500.0, 187500.0, 187500.0, 0.034, -0.022, 0.998, 192.0, 0.0, 0.0, 0.0, 0.0, 0.0, 0.0, 0.0, 0.0, 0.0, 1.6946814384304423E9, 0.0, 2023-09-14 10:50:38.430
178.0, -10.482968149539012, 187500.0, 187500.0, 187500.0, 187500.0, 187500.0, 187500.0, 187500.0, 0.034, -0.02, 1.0, 192.0, 1.0, 16.0, 255.0, 96.0, 31.0, 64.0, 0.0, 0.0, 0.0, 1.6946814384304817E9, 0.0, 2023-09-14 10:50:38.430
179.0, -10.214747216075327, 187500.0, 187500.0, 187500.0, 187500.0, 187500.0, 187500.0, 187500.0, 0.034, -0.02, 1.0, 192.0, 0.0, 0.0, 0.0, 0.0, 0.0, 0.0, 0.0, 0.0, 0.0, 1.694681438430522E9, 0.0, 2023-09-14 10:50:38.430
180.0, -15.109779251787574, 187500.0, 187500.0, 187500.0, 187500.0, 187500.0, 187500.0, 187500.0, 0.034, -0.02, 1.0, 192.0, 0.0, 0.0, 0.0, 0.0, 0.0, 0.0, 0.0, 0.0, 0.0, 1.6946814384305615E9, 0.0, 2023-09-14 10:50:38.430
181.0, -33.885244594245506, 187500.0, 187500.0, 187500.0, 187500.0, 187500.0, 187500.0, 187500.0, 0.034, -0.02, 1.0, 192.0, 0.0, 0.0, 0.0, 0.0, 0.0, 0.0, 0.0, 0.0, 0.0, 1.694681438430604E9, 0.0, 2023-09-14 10:50:38.430
182.0, -38.377945229762226, 187500.0, 187500.0, 187500.0, 187500.0, 187500.0, 187500.0, 187500.0, 0.034, -0.02, 1.0, 192.0, 0.0, 0.0, 0.0, 0.0, 0.0, 0.0, 0.0, 0.0, 0.0, 1.6946814384306488E9, 0.0, 2023-09-14 10:50:38.430
183.0, -37.9756138295667, 187500.0, 187500.0, 187500.0, 187500.0, 187500.0, 187500.0, 187500.0, 0.034, -0.02, 1.0, 192.0, 0.0, 0.0, 0.0, 0.0, 0.0, 0.0, 0.0, 0.0, 0.0, 1.694681438430689E9, 0.0, 2023-09-14 10:50:38.430
184.0, -33.16998877167568, 187500.0, 187500.0, 187500.0, 187500.0, 187500.0, 187500.0, 187500.0, 0.034, -0.02, 1.0, 192.0, 0.0, 0.0, 0.0, 0.0, 0.0, 0.0, 0.0, 0.0, 0.0, 1.6946814384307303E9, 0.0, 2023-09-14 10:50:38.430
185.0, -14.573337384860205, 187500.0, 187500.0, 187500.0, 187500.0, 187500.0, 187500.0, 187500.0, 0.034, -0.02, 1.0, 192.0, 0.0, 0.0, 0.0, 0.0, 0.0, 0.0, 0.0, 0.0, 0.0, 1.6946814384307747E9, 0.0, 2023-09-14 10:50:38.430
186.0, -10.371209427262476, 187500.0, 187500.0, 187500.0, 187500.0, 187500.0, 187500.0, 187500.0, 0.034, -0.02, 1.0, 192.0, 0.0, 0.0, 0.0, 0.0, 0.0, 0.0, 0.0, 0.0, 0.0, 1.6946814384308162E9, 0.0, 2023-09-14 10:50:38.430
187.0, -10.438264660628398, 187500.0, 187500.0, 187500.0, 187500.0, 187500.0, 187500.0, 187500.0, 0.034, -0.02, 1.0, 192.0, 0.0, 0.0, 0.0, 0.0, 0.0, 0.0, 0.0, 0.0, 0.0, 1.6946814384308572E9, 0.0, 2023-09-14 10:50:38.430
188.0, -15.333296696340645, 187500.0, 187500.0, 187500.0, 187500.0, 187500.0, 187500.0, 187500.0, 0.022, -0.02, 0.996, 192.0, 0.0, 176.0, 255.0, 96.0, 31.0, 32.0, 0.0, 0.0, 0.0, 1.694681438430896E9, 0.0, 2023-09-14 10:50:38.430
189.0, -33.79583761642428, 187500.0, 187500.0, 187500.0, 187500.0, 187500.0, 187500.0, 187500.0, 0.022, -0.02, 0.996, 192.0, 0.0, 0.0, 0.0, 0.0, 0.0, 0.0, 0.0, 0.0, 0.0, 1.6946814384310052E9, 0.0, 2023-09-14 10:50:38.431
190.0, -38.08737255184324, 187500.0, 187500.0, 187500.0, 187500.0, 187500.0, 187500.0, 187500.0, 0.022, -0.02, 0.996, 192.0, 0.0, 0.0, 0.0, 0.0, 0.0, 0.0, 0.0, 0.0, 0.0, 1.6946814384310453E9, 0.0, 2023-09-14 10:50:38.431
191.0, -38.15442778520916, 187500.0, 187500.0, 187500.0, 187500.0, 187500.0, 187500.0, 187500.0, 0.022, -0.02, 0.996, 192.0, 0.0, 0.0, 0.0, 0.0, 0.0, 0.0, 0.0, 0.0, 0.0, 1.6946814384310856E9, 0.0, 2023-09-14 10:50:38.431
192.0, -33.12528528276507, 187500.0, 187500.0, 187500.0, 187500.0, 187500.0, 187500.0, 187500.0, 0.022, -0.02, 0.996, 192.0, 0.0, 0.0, 0.0, 0.0, 0.0, 0.0, 0.0, 0.0, 0.0, 1.6946814384311912E9, 0.0, 2023-09-14 10:50:38.431
193.0, -14.372171684762442, 187500.0, 187500.0, 187500.0, 187500.0, 187500.0, 187500.0, 187500.0, 0.022, -0.02, 0.996, 192.0, 0.0, 0.0, 0.0, 0.0, 0.0, 0.0, 0.0, 0.0, 0.0, 1.694681438431239E9, 0.0, 2023-09-14 10:50:38.431
194.0, -9.857119304790414, 187500.0, 187500.0, 187500.0, 187500.0, 187500.0, 187500.0, 187500.0, 0.022, -0.02, 0.996, 192.0, 0.0, 0.0, 0.0, 0.0, 0.0, 0.0, 0.0, 0.0, 0.0, 1.69468143843128E9, 0.0, 2023-09-14 10:50:38.431
195.0, -10.19239547162002, 187500.0, 187500.0, 187500.0, 187500.0, 187500.0, 187500.0, 187500.0, 0.022, -0.02, 0.996, 192.0, 0.0, 0.0, 0.0, 0.0, 0.0, 0.0, 0.0, 0.0, 0.0, 1.6946814384313202E9, 0.0, 2023-09-14 10:50:38.431
196.0, -15.087427507332267, 187500.0, 187500.0, 187500.0, 187500.0, 187500.0, 187500.0, 187500.0, 0.022, -0.02, 0.996, 192.0, 0.0, 0.0, 0.0, 0.0, 0.0, 0.0, 0.0, 0.0, 0.0, 1.6946814384313593E9, 0.0, 2023-09-14 10:50:38.431
197.0, -33.90759633870081, 187500.0, 187500.0, 187500.0, 187500.0, 187500.0, 187500.0, 187500.0, 0.022, -0.02, 0.996, 192.0, 0.0, 0.0, 0.0, 0.0, 0.0, 0.0, 0.0, 0.0, 0.0, 1.6946814384314E9, 0.0, 2023-09-14 10:50:38.431
198.0, -38.06502080738793, 187500.0, 187500.0, 187500.0, 187500.0, 187500.0, 187500.0, 187500.0, 0.028, -0.026000000000000002, 1.0, 192.0, 0.0, 224.0, 255.0, 48.0, 31.0, 64.0, 0.0, 0.0, 0.0, 1.694681438431442E9, 0.0, 2023-09-14 10:50:38.431
199.0, -37.86385510729016, 187500.0, 187500.0, 187500.0, 187500.0, 187500.0, 187500.0, 187500.0, 0.028, -0.026000000000000002, 1.0, 192.0, 0.0, 0.0, 0.0, 0.0, 0.0, 0.0, 0.0, 0.0, 0.0, 1.6946814384314945E9, 0.0, 2023-09-14 10:50:38.431
200.0, -33.12528528276507, 187500.0, 187500.0, 187500.0, 187500.0, 187500.0, 187500.0, 187500.0, 0.028, -0.026000000000000002, 1.0, 192.0, 0.0, 0.0, 0.0, 0.0, 0.0, 0.0, 0.0, 0.0, 0.0, 1.6946814384315405E9, 0.0, 2023-09-14 10:50:38.431
201.0, -14.483930407038976, 187500.0, 187500.0, 187500.0, 187500.0, 187500.0, 187500.0, 187500.0, 0.028, -0.026000000000000002, 1.0, 192.0, 0.0, 0.0, 0.0, 0.0, 0.0, 0.0, 0.0, 0.0, 0.0, 1.6946814384315662E9, 0.0, 2023-09-14 10:50:38.431
202.0, -10.639430360726163, 187500.0, 187500.0, 187500.0, 187500.0, 187500.0, 187500.0, 187500.0, 0.028, -0.026000000000000002, 1.0, 192.0, 0.0, 0.0, 0.0, 0.0, 0.0, 0.0, 0.0, 0.0, 0.0, 1.6946814384315908E9, 0.0, 2023-09-14 10:50:38.431
203.0, -10.237098960530634, 187500.0, 187500.0, 187500.0, 187500.0, 187500.0, 187500.0, 187500.0, 0.028, -0.026000000000000002, 1.0, 192.0, 0.0, 0.0, 0.0, 0.0, 0.0, 0.0, 0.0, 0.0, 0.0, 1.6946814384316149E9, 0.0, 2023-09-14 10:50:38.431
204.0, -15.109779251787574, 187500.0, 187500.0, 187500.0, 187500.0, 187500.0, 187500.0, 187500.0, 0.028, -0.026000000000000002, 1.0, 192.0, 0.0, 0.0, 0.0, 0.0, 0.0, 0.0, 0.0, 0.0, 0.0, 1.694681438431639E9, 0.0, 2023-09-14 10:50:38.431
205.0, -33.84054110533489, 187500.0, 187500.0, 187500.0, 187500.0, 187500.0, 187500.0, 187500.0, 0.028, -0.026000000000000002, 1.0, 192.0, 0.0, 0.0, 0.0, 0.0, 0.0, 0.0, 0.0, 0.0, 0.0, 1.6946814384317052E9, 0.0, 2023-09-14 10:50:38.431
206.0, -38.176779529664465, 187500.0, 187500.0, 187500.0, 187500.0, 187500.0, 187500.0, 187500.0, 0.028, -0.026000000000000002, 1.0, 192.0, 0.0, 0.0, 0.0, 0.0, 0.0, 0.0, 0.0, 0.0, 0.0, 1.6946814384317296E9, 0.0, 2023-09-14 10:50:38.431
207.0, -38.176779529664465, 187500.0, 187500.0, 187500.0, 187500.0, 187500.0, 187500.0, 187500.0, 0.036000000000000004, -0.022, 0.998, 192.0, 1.0, 32.0, 255.0, 80.0, 31.0, 48.0, 0.0, 0.0, 0.0, 1.6946814384317656E9, 0.0, 2023-09-14 10:50:38.431
208.0, -33.28174749395222, 187500.0, 187500.0, 187500.0, 187500.0, 187500.0, 187500.0, 187500.0, 0.036000000000000004, -0.022, 0.998, 192.0, 0.0, 0.0, 0.0, 0.0, 0.0, 0.0, 0.0, 0.0, 0.0, 1.694681438431814E9, 0.0, 2023-09-14 10:50:38.431
209.0, -14.439226918128362, 187500.0, 187500.0, 187500.0, 187500.0, 187500.0, 187500.0, 187500.0, 0.036000000000000004, -0.022, 0.998, 192.0, 0.0, 0.0, 0.0, 0.0, 0.0, 0.0, 0.0, 0.0, 0.0, 1.6946814384318526E9, 0.0, 2023-09-14 10:50:38.431
210.0, -10.102988493798792, 187500.0, 187500.0, 187500.0, 187500.0, 187500.0, 187500.0, 187500.0, 0.036000000000000004, -0.022, 0.998, 192.0, 0.0, 0.0, 0.0, 0.0, 0.0, 0.0, 0.0, 0.0, 0.0, 1.694681438431878E9, 0.0, 2023-09-14 10:50:38.431
211.0, -10.259450704985941, 187500.0, 187500.0, 187500.0, 187500.0, 187500.0, 187500.0, 187500.0, 0.036000000000000004, -0.022, 0.998, 192.0, 0.0, 0.0, 0.0, 0.0, 0.0, 0.0, 0.0, 0.0, 0.0, 1.694681438431902E9, 0.0, 2023-09-14 10:50:38.431
212.0, -15.310944951885338, 187500.0, 187500.0, 187500.0, 187500.0, 187500.0, 187500.0, 187500.0, 0.036000000000000004, -0.022, 0.998, 192.0, 0.0, 0.0, 0.0, 0.0, 0.0, 0.0, 0.0, 0.0, 0.0, 1.694681438431926E9, 0.0, 2023-09-14 10:50:38.431
213.0, -33.818189360879586, 187500.0, 187500.0, 187500.0, 187500.0, 187500.0, 187500.0, 187500.0, 0.036000000000000004, -0.022, 0.998, 192.0, 0.0, 0.0, 0.0, 0.0, 0.0, 0.0, 0.0, 0.0, 0.0, 1.69468143843195E9, 0.0, 2023-09-14 10:50:38.431
214.0, -38.33324174085161, 187500.0, 187500.0, 187500.0, 187500.0, 187500.0, 187500.0, 187500.0, 0.036000000000000004, -0.022, 0.998, 192.0, 0.0, 0.0, 0.0, 0.0, 0.0, 0.0, 0.0, 0.0, 0.0, 1.694681438431974E9, 0.0, 2023-09-14 10:50:38.431
215.0, -37.75209638501363, 187500.0, 187500.0, 187500.0, 187500.0, 187500.0, 187500.0, 187500.0, 0.036000000000000004, -0.022, 0.998, 192.0, 0.0, 0.0, 0.0, 0.0, 0.0, 0.0, 0.0, 0.0, 0.0, 1.6946814384319985E9, 0.0, 2023-09-14 10:50:38.431
216.0, -33.10293353830976, 187500.0, 187500.0, 187500.0, 187500.0, 187500.0, 187500.0, 187500.0, 0.036000000000000004, -0.022, 0.998, 192.0, 0.0, 0.0, 0.0, 0.0, 0.0, 0.0, 0.0, 0.0, 0.0, 1.6946814384320223E9, 0.0, 2023-09-14 10:50:38.432
217.0, -14.774503084957969, 187500.0, 187500.0, 187500.0, 187500.0, 187500.0, 187500.0, 187500.0, 0.036000000000000004, -0.024, 1.0, 192.0, 1.0, 32.0, 255.0, 64.0, 31.0, 64.0, 0.0, 0.0, 0.0, 1.6946814384320674E9, 0.0, 2023-09-14 10:50:38.432
218.0, -10.66178210518147, 187500.0, 187500.0, 187500.0, 187500.0, 187500.0, 187500.0, 187500.0, 0.036000000000000004, -0.024, 1.0, 192.0, 0.0, 0.0, 0.0, 0.0, 0.0, 0.0, 0.0, 0.0, 0.0, 1.6946814384321115E9, 0.0, 2023-09-14 10:50:38.432
219.0, -10.34885768280717, 187500.0, 187500.0, 187500.0, 187500.0, 187500.0, 187500.0, 187500.0, 0.036000000000000004, -0.024, 1.0, 192.0, 0.0, 0.0, 0.0, 0.0, 0.0, 0.0, 0.0, 0.0, 0.0, 1.69468143843214E9, 0.0, 2023-09-14 10:50:38.432
220.0, -15.266241462974724, 187500.0, 187500.0, 187500.0, 187500.0, 187500.0, 187500.0, 187500.0, 0.036000000000000004, -0.024, 1.0, 192.0, 0.0, 0.0, 0.0, 0.0, 0.0, 0.0, 0.0, 0.0, 0.0, 1.694681438432259E9, 0.0, 2023-09-14 10:50:38.432
221.0, -34.01935506097735, 187500.0, 187500.0, 187500.0, 187500.0, 187500.0, 187500.0, 187500.0, 0.036000000000000004, -0.024, 1.0, 192.0, 0.0, 0.0, 0.0, 0.0, 0.0, 0.0, 0.0, 0.0, 0.0, 1.6946814384323125E9, 0.0, 2023-09-14 10:50:38.432
222.0, -38.33324174085161, 187500.0, 187500.0, 187500.0, 187500.0, 187500.0, 187500.0, 187500.0, 0.036000000000000004, -0.024, 1.0, 192.0, 0.0, 0.0, 0.0, 0.0, 0.0, 0.0, 0.0, 0.0, 0.0, 1.6946814384323573E9, 0.0, 2023-09-14 10:50:38.432
223.0, -38.02031731847731, 187500.0, 187500.0, 187500.0, 187500.0, 187500.0, 187500.0, 187500.0, 0.036000000000000004, -0.024, 1.0, 192.0, 0.0, 0.0, 0.0, 0.0, 0.0, 0.0, 0.0, 0.0, 0.0, 1.6946814384324012E9, 0.0, 2023-09-14 10:50:38.432
224.0, -33.12528528276507, 187500.0, 187500.0, 187500.0, 187500.0, 187500.0, 187500.0, 187500.0, 0.036000000000000004, -0.024, 1.0, 192.0, 0.0, 0.0, 0.0, 0.0, 0.0, 0.0, 0.0, 0.0, 0.0, 1.694681438432444E9, 0.0, 2023-09-14 10:50:38.432
225.0, -14.99802052951104, 187500.0, 187500.0, 187500.0, 187500.0, 187500.0, 187500.0, 187500.0, 0.036000000000000004, -0.024, 1.0, 192.0, 0.0, 0.0, 0.0, 0.0, 0.0, 0.0, 0.0, 0.0, 0.0, 1.6946814384324856E9, 0.0, 2023-09-14 10:50:38.432
226.0, -10.304154193896556, 187500.0, 187500.0, 187500.0, 187500.0, 187500.0, 187500.0, 187500.0, 0.036000000000000004, -0.024, 1.0, 192.0, 0.0, 0.0, 0.0, 0.0, 0.0, 0.0, 0.0, 0.0, 0.0, 1.6946814384325287E9, 0.0, 2023-09-14 10:50:38.432
227.0, -10.214747216075327, 187500.0, 187500.0, 187500.0, 187500.0, 187500.0, 187500.0, 187500.0, 0.036000000000000004, -0.024, 1.006, 192.0, 1.0, 32.0, 255.0, 64.0, 31.0, 112.0, 0.0, 0.0, 0.0, 1.6946814389076412E9, 0.0, 2023-09-14 10:50:38.907
228.0, -15.512110651983102, 187500.0, 187500.0, 187500.0, 187500.0, 187500.0, 187500.0, 187500.0, 0.036000000000000004, -0.024, 1.006, 192.0, 0.0, 0.0, 0.0, 0.0, 0.0, 0.0, 0.0, 0.0, 0.0, 1.694681438907858E9, 0.0, 2023-09-14 10:50:38.907
229.0, -33.70643063860305, 187500.0, 187500.0, 187500.0, 187500.0, 187500.0, 187500.0, 187500.0, 0.036000000000000004, -0.024, 1.006, 192.0, 0.0, 0.0, 0.0, 0.0, 0.0, 0.0, 0.0, 0.0, 0.0, 1.694681438907892E9, 0.0, 2023-09-14 10:50:38.907
230.0, -38.08737255184324, 187500.0, 187500.0, 187500.0, 187500.0, 187500.0, 187500.0, 187500.0, 0.036000000000000004, -0.024, 1.006, 192.0, 0.0, 0.0, 0.0, 0.0, 0.0, 0.0, 0.0, 0.0, 0.0, 1.6946814389079325E9, 0.0, 2023-09-14 10:50:38.907
231.0, -37.997965574022004, 187500.0, 187500.0, 187500.0, 187500.0, 187500.0, 187500.0, 187500.0, 0.036000000000000004, -0.024, 1.006, 192.0, 0.0, 0.0, 0.0, 0.0, 0.0, 0.0, 0.0, 0.0, 0.0, 1.6946814389079795E9, 0.0, 2023-09-14 10:50:38.907
232.0, -33.12528528276507, 187500.0, 187500.0, 187500.0, 187500.0, 187500.0, 187500.0, 187500.0, 0.036000000000000004, -0.024, 1.006, 192.0, 0.0, 0.0, 0.0, 0.0, 0.0, 0.0, 0.0, 0.0, 0.0, 1.694681438908014E9, 0.0, 2023-09-14 10:50:38.908
233.0, -14.863910062779196, 187500.0, 187500.0, 187500.0, 187500.0, 187500.0, 187500.0, 187500.0, 0.036000000000000004, -0.024, 1.006, 192.0, 0.0, 0.0, 0.0, 0.0, 0.0, 0.0, 0.0, 0.0, 0.0, 1.6946814389080443E9, 0.0, 2023-09-14 10:50:38.908
234.0, -9.96887802706695, 187500.0, 187500.0, 187500.0, 187500.0, 187500.0, 187500.0, 187500.0, 0.036000000000000004, -0.024, 1.006, 192.0, 0.0, 0.0, 0.0, 0.0, 0.0, 0.0, 0.0, 0.0, 0.0, 1.6946814389080727E9, 0.0, 2023-09-14 10:50:38.908
235.0, -9.879471049245721, 187500.0, 187500.0, 187500.0, 187500.0, 187500.0, 187500.0, 187500.0, 0.036000000000000004, -0.024, 1.006, 192.0, 0.0, 0.0, 0.0, 0.0, 0.0, 0.0, 0.0, 0.0, 0.0, 1.694681438908452E9, 0.0, 2023-09-14 10:50:38.908
236.0, -15.400351929706567, 187500.0, 187500.0, 187500.0, 187500.0, 187500.0, 187500.0, 187500.0, 0.036000000000000004, -0.024, 1.006, 192.0, 0.0, 0.0, 0.0, 0.0, 0.0, 0.0, 0.0, 0.0, 0.0, 1.6946814389084823E9, 0.0, 2023-09-14 10:50:38.908
237.0, -33.818189360879586, 187500.0, 187500.0, 187500.0, 187500.0, 187500.0, 187500.0, 187500.0, 0.038, -0.022, 1.004, 192.0, 1.0, 48.0, 255.0, 80.0, 31.0, 96.0, 0.0, 0.0, 0.0, 1.6946814389085107E9, 0.0, 2023-09-14 10:50:38.908
238.0, -37.79679987392424, 187500.0, 187500.0, 187500.0, 187500.0, 187500.0, 187500.0, 187500.0, 0.038, -0.022, 1.004, 192.0, 0.0, 0.0, 0.0, 0.0, 0.0, 0.0, 0.0, 0.0, 0.0, 1.694681438908557E9, 0.0, 2023-09-14 10:50:38.908
239.0, -37.90855859620078, 187500.0, 187500.0, 187500.0, 187500.0, 187500.0, 187500.0, 187500.0, 0.038, -0.022, 1.004, 192.0, 0.0, 0.0, 0.0, 0.0, 0.0, 0.0, 0.0, 0.0, 0.0, 1.6946814389085877E9, 0.0, 2023-09-14 10:50:38.908
240.0, -33.08058179385445, 187500.0, 187500.0, 187500.0, 187500.0, 187500.0, 187500.0, 187500.0, 0.038, -0.022, 1.004, 192.0, 0.0, 0.0, 0.0, 0.0, 0.0, 0.0, 0.0, 0.0, 0.0, 1.6946814389086149E9, 0.0, 2023-09-14 10:50:38.908
241.0, -14.573337384860205, 187500.0, 187500.0, 187500.0, 187500.0, 187500.0, 187500.0, 187500.0, 0.038, -0.022, 1.004, 192.0, 0.0, 0.0, 0.0, 0.0, 0.0, 0.0, 0.0, 0.0, 0.0, 1.6946814389086428E9, 0.0, 2023-09-14 10:50:38.908
242.0, -10.080636749343485, 187500.0, 187500.0, 187500.0, 187500.0, 187500.0, 187500.0, 187500.0, 0.038, -0.022, 1.004, 192.0, 0.0, 0.0, 0.0, 0.0, 0.0, 0.0, 0.0, 0.0, 0.0, 1.6946814389086688E9, 0.0, 2023-09-14 10:50:38.908
243.0, -10.102988493798792, 187500.0, 187500.0, 187500.0, 187500.0, 187500.0, 187500.0, 187500.0, 0.038, -0.022, 1.004, 192.0, 0.0, 0.0, 0.0, 0.0, 0.0, 0.0, 0.0, 0.0, 0.0, 1.6946814389086952E9, 0.0, 2023-09-14 10:50:38.908
244.0, -15.288593207430031, 187500.0, 187500.0, 187500.0, 187500.0, 187500.0, 187500.0, 187500.0, 0.038, -0.022, 1.004, 192.0, 0.0, 0.0, 0.0, 0.0, 0.0, 0.0, 0.0, 0.0, 0.0, 1.6946814389087217E9, 0.0, 2023-09-14 10:50:38.908
245.0, -33.617023660781825, 187500.0, 187500.0, 187500.0, 187500.0, 187500.0, 187500.0, 187500.0, 0.038, -0.022, 1.004, 192.0, 0.0, 0.0, 0.0, 0.0, 0.0, 0.0, 0.0, 0.0, 0.0, 1.6946814389087467E9, 0.0, 2023-09-14 10:50:38.908
246.0, -37.997965574022004, 187500.0, 187500.0, 187500.0, 187500.0, 187500.0, 187500.0, 187500.0, 0.038, -0.022, 1.004, 192.0, 0.0, 0.0, 0.0, 0.0, 0.0, 0.0, 0.0, 0.0, 0.0, 1.6946814389087727E9, 0.0, 2023-09-14 10:50:38.908
247.0, -38.310889996396305, 187500.0, 187500.0, 187500.0, 187500.0, 187500.0, 187500.0, 187500.0, 0.04, -0.022, 1.008, 192.0, 1.0, 64.0, 255.0, 80.0, 31.0, 128.0, 0.0, 0.0, 0.0, 1.6946814389088004E9, 0.0, 2023-09-14 10:50:38.908
248.0, -33.95229982761143, 187500.0, 187500.0, 187500.0, 187500.0, 187500.0, 187500.0, 187500.0, 0.04, -0.022, 1.008, 192.0, 0.0, 0.0, 0.0, 0.0, 0.0, 0.0, 0.0, 0.0, 0.0, 1.6946814389088285E9, 0.0, 2023-09-14 10:50:38.908
249.0, -14.729799596047354, 187500.0, 187500.0, 187500.0, 187500.0, 187500.0, 187500.0, 187500.0, 0.04, -0.022, 1.008, 192.0, 0.0, 0.0, 0.0, 0.0, 0.0, 0.0, 0.0, 0.0, 0.0, 1.6946814389088552E9, 0.0, 2023-09-14 10:50:38.908
250.0, -9.991229771522256, 187500.0, 187500.0, 187500.0, 187500.0, 187500.0, 187500.0, 187500.0, 0.04, -0.022, 1.008, 192.0, 0.0, 0.0, 0.0, 0.0, 0.0, 0.0, 0.0, 0.0, 0.0, 1.6946814389088812E9, 0.0, 2023-09-14 10:50:38.908
251.0, -10.28180244944125, 187500.0, 187500.0, 187500.0, 187500.0, 187500.0, 187500.0, 187500.0, 0.04, -0.022, 1.008, 192.0, 0.0, 0.0, 0.0, 0.0, 0.0, 0.0, 0.0, 0.0, 0.0, 1.694681438909139E9, 0.0, 2023-09-14 10:50:38.909
252.0, -15.243889718519418, 187500.0, 187500.0, 187500.0, 187500.0, 187500.0, 187500.0, 187500.0, 0.04, -0.022, 1.008, 192.0, 0.0, 0.0, 0.0, 0.0, 0.0, 0.0, 0.0, 0.0, 0.0, 1.6946814389091692E9, 0.0, 2023-09-14 10:50:38.909
253.0, -34.19816901661981, 187500.0, 187500.0, 187500.0, 187500.0, 187500.0, 187500.0, 187500.0, 0.04, -0.022, 1.008, 192.0, 0.0, 0.0, 0.0, 0.0, 0.0, 0.0, 0.0, 0.0, 0.0, 1.6946814389092064E9, 0.0, 2023-09-14 10:50:38.909
254.0, -38.13207604075385, 187500.0, 187500.0, 187500.0, 187500.0, 187500.0, 187500.0, 187500.0, 0.04, -0.022, 1.008, 192.0, 0.0, 0.0, 0.0, 0.0, 0.0, 0.0, 0.0, 0.0, 0.0, 1.6946814389092467E9, 0.0, 2023-09-14 10:50:38.909
255.0, -38.15442778520916, 187500.0, 187500.0, 187500.0, 187500.0, 187500.0, 187500.0, 187500.0, 0.04, -0.022, 1.008, 192.0, 0.0, 0.0, 0.0, 0.0, 0.0, 0.0, 0.0, 0.0, 0.0, 1.6946814389092915E9, 0.0, 2023-09-14 10:50:38.909
0.0, -33.438209705139364, 187500.0, 187500.0, 187500.0, 187500.0, 187500.0, 187500.0, 187500.0, 0.04, -0.022, 1.008, 192.0, 0.0, 0.0, 0.0, 0.0, 0.0, 0.0, 0.0, 0.0, 0.0, 1.6946814389093297E9, 0.0, 2023-09-14 10:50:38.909
1.0, -15.087427507332267, 187500.0, 187500.0, 187500.0, 187500.0, 187500.0, 187500.0, 187500.0, 0.036000000000000004, -0.024, 1.006, 192.0, 1.0, 32.0, 255.0, 64.0, 31.0, 112.0, 0.0, 0.0, 0.0, 1.6946814389093792E9, 0.0, 2023-09-14 10:50:38.909
2.0, -10.482968149539012, 187500.0, 187500.0, 187500.0, 187500.0, 187500.0, 187500.0, 187500.0, 0.036000000000000004, -0.024, 1.006, 192.0, 0.0, 0.0, 0.0, 0.0, 0.0, 0.0, 0.0, 0.0, 0.0, 1.69468143890942E9, 0.0, 2023-09-14 10:50:38.909
3.0, -10.080636749343485, 187500.0, 187500.0, 187500.0, 187500.0, 187500.0, 187500.0, 187500.0, 0.036000000000000004, -0.024, 1.006, 192.0, 0.0, 0.0, 0.0, 0.0, 0.0, 0.0, 0.0, 0.0, 0.0, 1.6946814389094665E9, 0.0, 2023-09-14 10:50:38.909
4.0, -14.729799596047354, 187500.0, 187500.0, 187500.0, 187500.0, 187500.0, 187500.0, 187500.0, 0.036000000000000004, -0.024, 1.006, 192.0, 0.0, 0.0, 0.0, 0.0, 0.0, 0.0, 0.0, 0.0, 0.0, 1.6946814389095118E9, 0.0, 2023-09-14 10:50:38.909
5.0, -33.5499684274159, 187500.0, 187500.0, 187500.0, 187500.0, 187500.0, 187500.0, 187500.0, 0.036000000000000004, -0.024, 1.006, 192.0, 0.0, 0.0, 0.0, 0.0, 0.0, 0.0, 0.0, 0.0, 0.0, 1.6946814389095538E9, 0.0, 2023-09-14 10:50:38.909
6.0, -38.13207604075385, 187500.0, 187500.0, 187500.0, 187500.0, 187500.0, 187500.0, 187500.0, 0.036000000000000004, -0.024, 1.006, 192.0, 0.0, 0.0, 0.0, 0.0, 0.0, 0.0, 0.0, 0.0, 0.0, 1.6946814389095957E9, 0.0, 2023-09-14 10:50:38.909
7.0, -38.26618650748569, 187500.0, 187500.0, 187500.0, 187500.0, 187500.0, 187500.0, 187500.0, 0.036000000000000004, -0.024, 1.006, 192.0, 0.0, 0.0, 0.0, 0.0, 0.0, 0.0, 0.0, 0.0, 0.0, 1.6946814389096391E9, 0.0, 2023-09-14 10:50:38.909
8.0, -33.304099238407524, 187500.0, 187500.0, 187500.0, 187500.0, 187500.0, 187500.0, 187500.0, 0.036000000000000004, -0.024, 1.006, 192.0, 0.0, 0.0, 0.0, 0.0, 0.0, 0.0, 0.0, 0.0, 0.0, 1.6946814389096756E9, 0.0, 2023-09-14 10:50:38.909
9.0, -14.640392618226127, 187500.0, 187500.0, 187500.0, 187500.0, 187500.0, 187500.0, 187500.0, 0.036000000000000004, -0.024, 1.006, 192.0, 0.0, 0.0, 0.0, 0.0, 0.0, 0.0, 0.0, 0.0, 0.0, 1.6946814389097097E9, 0.0, 2023-09-14 10:50:38.909
10.0, -10.147691982709407, 187500.0, 187500.0, 187500.0, 187500.0, 187500.0, 187500.0, 187500.0, 0.036000000000000004, -0.024, 1.006, 192.0, 0.0, 0.0, 0.0, 0.0, 0.0, 0.0, 0.0, 0.0, 0.0, 1.694681438909886E9, 0.0, 2023-09-14 10:50:38.909
11.0, -10.19239547162002, 187500.0, 187500.0, 187500.0, 187500.0, 187500.0, 187500.0, 187500.0, 0.038, -0.022, 1.006, 192.0, 1.0, 48.0, 255.0, 80.0, 31.0, 112.0, 0.0, 0.0, 0.0, 1.6946814389099221E9, 0.0, 2023-09-14 10:50:38.909
12.0, -15.400351929706567, 187500.0, 187500.0, 187500.0, 187500.0, 187500.0, 187500.0, 187500.0, 0.038, -0.022, 1.006, 192.0, 0.0, 0.0, 0.0, 0.0, 0.0, 0.0, 0.0, 0.0, 0.0, 1.6946814389099681E9, 0.0, 2023-09-14 10:50:38.909
