%OpenBCI Raw EXG Data
%Number of channels = 8
%Sample Rate = 250 Hz
%Board = OpenBCI_GUI$BoardCytonSerial
Sample Index, EXG Channel 0, EXG Channel 1, EXG Channel 2, EXG Channel 3, EXG Channel 4, EXG Channel 5, EXG Channel 6, EXG Channel 7, Accel Channel 0, Accel Channel 1, Accel Channel 2, Other, Other, Other, Other, Other, Other, Other, Analog Channel 0, Analog Channel 1, Analog Channel 2, Timestamp, Other, Timestamp (Formatted)
0.0, 0.0, 0.0, 0.0, 0.0, 0.0, 0.0, 0.0, 0.0, 0.038, -0.024, 1.008, 192.0, 1.0, 48.0, 255.0, 64.0, 31.0, 128.0, 0.0, 0.0, 0.0, 1.6946822047120728E9, 0.0, 2023-09-14 11:03:24.712
1.0, -14.908613551689811, 187500.0, 187500.0, 187500.0, 187500.0, 187500.0, 187500.0, 187500.0, 0.038, -0.024, 1.008, 192.0, 0.0, 0.0, 0.0, 0.0, 0.0, 0.0, 0.0, 0.0, 0.0, 1.6946822051945665E9, 0.0, 2023-09-14 11:03:25.194
2.0, -10.88529954973454, 187500.0, 187500.0, 187500.0, 187500.0, 187500.0, 187500.0, 187500.0, 0.038, -0.024, 1.008, 192.0, 0.0, 0.0, 0.0, 0.0, 0.0, 0.0, 0.0, 0.0, 0.0, 1.694682205194658E9, 0.0, 2023-09-14 11:03:25.194
3.0, -10.88529954973454, 187500.0, 187500.0, 187500.0, 187500.0, 187500.0, 187500.0, 187500.0, 0.038, -0.024, 1.008, 192.0, 0.0, 0.0, 0.0, 0.0, 0.0, 0.0, 0.0, 0.0, 0.0, 1.694682205194723E9, 0.0, 2023-09-14 11:03:25.194
4.0, -15.713276352080864, 187500.0, 187500.0, 187500.0, 187500.0, 187500.0, 187500.0, 187500.0, 0.038, -0.024, 1.008, 192.0, 0.0, 0.0, 0.0, 0.0, 0.0, 0.0, 0.0, 0.0, 0.0, 1.6946822051947913E9, 0.0, 2023-09-14 11:03:25.194
5.0, -34.19816901661981, 187500.0, 187500.0, 187500.0, 187500.0, 187500.0, 187500.0, 187500.0, 0.038, -0.024, 1.008, 192.0, 0.0, 0.0, 0.0, 0.0, 0.0, 0.0, 0.0, 0.0, 0.0, 1.6946822051948335E9, 0.0, 2023-09-14 11:03:25.194
6.0, -37.86385510729016, 187500.0, 187500.0, 187500.0, 187500.0, 187500.0, 187500.0, 187500.0, 0.038, -0.024, 1.008, 192.0, 0.0, 0.0, 0.0, 0.0, 0.0, 0.0, 0.0, 0.0, 0.0, 1.6946822051948686E9, 0.0, 2023-09-14 11:03:25.194
7.0, -37.81915161837955, 187500.0, 187500.0, 187500.0, 187500.0, 187500.0, 187500.0, 187500.0, 0.038, -0.024, 1.008, 192.0, 0.0, 0.0, 0.0, 0.0, 0.0, 0.0, 0.0, 0.0, 0.0, 1.6946822051948948E9, 0.0, 2023-09-14 11:03:25.194
8.0, -33.25939574949691, 187500.0, 187500.0, 187500.0, 187500.0, 187500.0, 187500.0, 187500.0, 0.04, -0.028, 0.998, 192.0, 1.0, 64.0, 255.0, 32.0, 31.0, 48.0, 0.0, 0.0, 0.0, 1.6946822051949203E9, 0.0, 2023-09-14 11:03:25.194
9.0, -14.886261807234504, 187500.0, 187500.0, 187500.0, 187500.0, 187500.0, 187500.0, 187500.0, 0.04, -0.028, 0.998, 192.0, 0.0, 0.0, 0.0, 0.0, 0.0, 0.0, 0.0, 0.0, 0.0, 1.6946822051949484E9, 0.0, 2023-09-14 11:03:25.194
10.0, -10.371209427262476, 187500.0, 187500.0, 187500.0, 187500.0, 187500.0, 187500.0, 187500.0, 0.04, -0.028, 0.998, 192.0, 0.0, 0.0, 0.0, 0.0, 0.0, 0.0, 0.0, 0.0, 0.0, 1.6946822051949742E9, 0.0, 2023-09-14 11:03:25.194
11.0, -10.438264660628398, 187500.0, 187500.0, 187500.0, 187500.0, 187500.0, 187500.0, 187500.0, 0.04, -0.028, 0.998, 192.0, 0.0, 0.0, 0.0, 0.0, 0.0, 0.0, 0.0, 0.0, 0.0, 1.694682205195008E9, 0.0, 2023-09-14 11:03:25.195
12.0, -15.556814140893716, 187500.0, 187500.0, 187500.0, 187500.0, 187500.0, 187500.0, 187500.0, 0.04, -0.028, 0.998, 192.0, 0.0, 0.0, 0.0, 0.0, 0.0, 0.0, 0.0, 0.0, 0.0, 1.6946822051950614E9, 0.0, 2023-09-14 11:03:25.195
13.0, -33.90759633870081, 187500.0, 187500.0, 187500.0, 187500.0, 187500.0, 187500.0, 187500.0, 0.04, -0.028, 0.998, 192.0, 0.0, 0.0, 0.0, 0.0, 0.0, 0.0, 0.0, 0.0, 0.0, 1.694682205195102E9, 0.0, 2023-09-14 11:03:25.195
14.0, -38.08737255184324, 187500.0, 187500.0, 187500.0, 187500.0, 187500.0, 187500.0, 187500.0, 0.04, -0.028, 0.998, 192.0, 0.0, 0.0, 0.0, 0.0, 0.0, 0.0, 0.0, 0.0, 0.0, 1.694682205195142E9, 0.0, 2023-09-14 11:03:25.195
15.0, -38.109724296298545, 187500.0, 187500.0, 187500.0, 187500.0, 187500.0, 187500.0, 187500.0, 0.04, -0.028, 0.998, 192.0, 0.0, 0.0, 0.0, 0.0, 0.0, 0.0, 0.0, 0.0, 0.0, 1.6946822051951854E9, 0.0, 2023-09-14 11:03:25.195
16.0, -33.2146922605863, 187500.0, 187500.0, 187500.0, 187500.0, 187500.0, 187500.0, 187500.0, 0.04, -0.028, 0.998, 192.0, 0.0, 0.0, 0.0, 0.0, 0.0, 0.0, 0.0, 0.0, 0.0, 1.69468220519553E9, 0.0, 2023-09-14 11:03:25.195
17.0, -14.975668785055731, 187500.0, 187500.0, 187500.0, 187500.0, 187500.0, 187500.0, 187500.0, 0.044, -0.026000000000000002, 1.008, 192.0, 1.0, 96.0, 255.0, 48.0, 31.0, 128.0, 0.0, 0.0, 0.0, 1.694682205195577E9, 0.0, 2023-09-14 11:03:25.195
18.0, -10.95235478310046, 187500.0, 187500.0, 187500.0, 187500.0, 187500.0, 187500.0, 187500.0, 0.044, -0.026000000000000002, 1.008, 192.0, 0.0, 0.0, 0.0, 0.0, 0.0, 0.0, 0.0, 0.0, 0.0, 1.6946822051956232E9, 0.0, 2023-09-14 11:03:25.195
19.0, -10.818244316368618, 187500.0, 187500.0, 187500.0, 187500.0, 187500.0, 187500.0, 187500.0, 0.044, -0.026000000000000002, 1.008, 192.0, 0.0, 0.0, 0.0, 0.0, 0.0, 0.0, 0.0, 0.0, 0.0, 1.6946822051956737E9, 0.0, 2023-09-14 11:03:25.195
20.0, -15.422703674161873, 187500.0, 187500.0, 187500.0, 187500.0, 187500.0, 187500.0, 187500.0, 0.044, -0.026000000000000002, 1.008, 192.0, 0.0, 0.0, 0.0, 0.0, 0.0, 0.0, 0.0, 0.0, 0.0, 1.694682205195717E9, 0.0, 2023-09-14 11:03:25.195
21.0, -33.95229982761143, 187500.0, 187500.0, 187500.0, 187500.0, 187500.0, 187500.0, 187500.0, 0.044, -0.026000000000000002, 1.008, 192.0, 0.0, 0.0, 0.0, 0.0, 0.0, 0.0, 0.0, 0.0, 0.0, 1.6946822051957572E9, 0.0, 2023-09-14 11:03:25.195
22.0, -38.04266906293262, 187500.0, 187500.0, 187500.0, 187500.0, 187500.0, 187500.0, 187500.0, 0.044, -0.026000000000000002, 1.008, 192.0, 0.0, 0.0, 0.0, 0.0, 0.0, 0.0, 0.0, 0.0, 0.0, 1.6946822051958027E9, 0.0, 2023-09-14 11:03:25.195
23.0, -38.288538251941, 187500.0, 187500.0, 187500.0, 187500.0, 187500.0, 187500.0, 187500.0, 0.044, -0.026000000000000002, 1.008, 192.0, 0.0, 0.0, 0.0, 0.0, 0.0, 0.0, 0.0, 0.0, 0.0, 1.6946822051958616E9, 0.0, 2023-09-14 11:03:25.195
24.0, -33.237044005041604, 187500.0, 187500.0, 187500.0, 187500.0, 187500.0, 187500.0, 187500.0, 0.044, -0.026000000000000002, 1.008, 192.0, 0.0, 0.0, 0.0, 0.0, 0.0, 0.0, 0.0, 0.0, 0.0, 1.694682205195901E9, 0.0, 2023-09-14 11:03:25.195
25.0, -15.087427507332267, 187500.0, 187500.0, 187500.0, 187500.0, 187500.0, 187500.0, 187500.0, 0.044, -0.026000000000000002, 1.008, 192.0, 0.0, 0.0, 0.0, 0.0, 0.0, 0.0, 0.0, 0.0, 0.0, 1.6946822051959429E9, 0.0, 2023-09-14 11:03:25.195
26.0, -10.527671638449627, 187500.0, 187500.0, 187500.0, 187500.0, 187500.0, 187500.0, 187500.0, 0.044, -0.026000000000000002, 1.008, 192.0, 0.0, 0.0, 0.0, 0.0, 0.0, 0.0, 0.0, 0.0, 0.0, 1.6946822051959827E9, 0.0, 2023-09-14 11:03:25.195
27.0, -10.371209427262476, 187500.0, 187500.0, 187500.0, 187500.0, 187500.0, 187500.0, 187500.0, 0.034, -0.028, 1.006, 192.0, 1.0, 16.0, 255.0, 32.0, 31.0, 112.0, 0.0, 0.0, 0.0, 1.6946822051960273E9, 0.0, 2023-09-14 11:03:25.196
28.0, -15.556814140893716, 187500.0, 187500.0, 187500.0, 187500.0, 187500.0, 187500.0, 187500.0, 0.034, -0.028, 1.006, 192.0, 0.0, 0.0, 0.0, 0.0, 0.0, 0.0, 0.0, 0.0, 0.0, 1.6946822051960747E9, 0.0, 2023-09-14 11:03:25.196
29.0, -34.53344518344941, 187500.0, 187500.0, 187500.0, 187500.0, 187500.0, 187500.0, 187500.0, 0.034, -0.028, 1.006, 192.0, 0.0, 0.0, 0.0, 0.0, 0.0, 0.0, 0.0, 0.0, 0.0, 1.694682205196118E9, 0.0, 2023-09-14 11:03:25.196
30.0, -38.46735220758345, 187500.0, 187500.0, 187500.0, 187500.0, 187500.0, 187500.0, 187500.0, 0.034, -0.028, 1.006, 192.0, 0.0, 0.0, 0.0, 0.0, 0.0, 0.0, 0.0, 0.0, 0.0, 1.6946822051961677E9, 0.0, 2023-09-14 11:03:25.196
31.0, -38.19913127411977, 187500.0, 187500.0, 187500.0, 187500.0, 187500.0, 187500.0, 187500.0, 0.034, -0.028, 1.006, 192.0, 0.0, 0.0, 0.0, 0.0, 0.0, 0.0, 0.0, 0.0, 0.0, 1.6946822051964467E9, 0.0, 2023-09-14 11:03:25.196
32.0, -33.2146922605863, 187500.0, 187500.0, 187500.0, 187500.0, 187500.0, 187500.0, 187500.0, 0.034, -0.028, 1.006, 192.0, 0.0, 0.0, 0.0, 0.0, 0.0, 0.0, 0.0, 0.0, 0.0, 1.6946822051964996E9, 0.0, 2023-09-14 11:03:25.196
33.0, -15.221537974064109, 187500.0, 187500.0, 187500.0, 187500.0, 187500.0, 187500.0, 187500.0, 0.034, -0.028, 1.006, 192.0, 0.0, 0.0, 0.0, 0.0, 0.0, 0.0, 0.0, 0.0, 0.0, 1.6946822051965451E9, 0.0, 2023-09-14 11:03:25.196
34.0, -10.818244316368618, 187500.0, 187500.0, 187500.0, 187500.0, 187500.0, 187500.0, 187500.0, 0.034, -0.028, 1.006, 192.0, 0.0, 0.0, 0.0, 0.0, 0.0, 0.0, 0.0, 0.0, 0.0, 1.69468220519659E9, 0.0, 2023-09-14 11:03:25.196
35.0, -10.95235478310046, 187500.0, 187500.0, 187500.0, 187500.0, 187500.0, 187500.0, 187500.0, 0.034, -0.028, 1.006, 192.0, 0.0, 0.0, 0.0, 0.0, 0.0, 0.0, 0.0, 0.0, 0.0, 1.694682205196624E9, 0.0, 2023-09-14 11:03:25.196
36.0, -15.646221118714944, 187500.0, 187500.0, 187500.0, 187500.0, 187500.0, 187500.0, 187500.0, 0.034, -0.028, 1.006, 192.0, 0.0, 0.0, 0.0, 0.0, 0.0, 0.0, 0.0, 0.0, 0.0, 1.6946822051966505E9, 0.0, 2023-09-14 11:03:25.196
37.0, -34.06405854988796, 187500.0, 187500.0, 187500.0, 187500.0, 187500.0, 187500.0, 187500.0, 0.028, -0.032, 1.01, 192.0, 0.0, 224.0, 255.0, 0.0, 31.0, 144.0, 0.0, 0.0, 0.0, 1.6946822051966913E9, 0.0, 2023-09-14 11:03:25.196
38.0, -38.243834763030385, 187500.0, 187500.0, 187500.0, 187500.0, 187500.0, 187500.0, 187500.0, 0.028, -0.032, 1.01, 192.0, 0.0, 0.0, 0.0, 0.0, 0.0, 0.0, 0.0, 0.0, 0.0, 1.6946822051967356E9, 0.0, 2023-09-14 11:03:25.196
39.0, -38.15442778520916, 187500.0, 187500.0, 187500.0, 187500.0, 187500.0, 187500.0, 187500.0, 0.028, -0.032, 1.01, 192.0, 0.0, 0.0, 0.0, 0.0, 0.0, 0.0, 0.0, 0.0, 0.0, 1.6946822051967847E9, 0.0, 2023-09-14 11:03:25.196
40.0, -33.572320171871205, 187500.0, 187500.0, 187500.0, 187500.0, 187500.0, 187500.0, 187500.0, 0.028, -0.032, 1.01, 192.0, 0.0, 0.0, 0.0, 0.0, 0.0, 0.0, 0.0, 0.0, 0.0, 1.6946822051968272E9, 0.0, 2023-09-14 11:03:25.196
41.0, -14.886261807234504, 187500.0, 187500.0, 187500.0, 187500.0, 187500.0, 187500.0, 187500.0, 0.028, -0.032, 1.01, 192.0, 0.0, 0.0, 0.0, 0.0, 0.0, 0.0, 0.0, 0.0, 0.0, 1.6946822051968737E9, 0.0, 2023-09-14 11:03:25.196
42.0, -10.482968149539012, 187500.0, 187500.0, 187500.0, 187500.0, 187500.0, 187500.0, 187500.0, 0.028, -0.032, 1.01, 192.0, 0.0, 0.0, 0.0, 0.0, 0.0, 0.0, 0.0, 0.0, 0.0, 1.6946822051969333E9, 0.0, 2023-09-14 11:03:25.196
43.0, -10.550023382904934, 187500.0, 187500.0, 187500.0, 187500.0, 187500.0, 187500.0, 187500.0, 0.028, -0.032, 1.01, 192.0, 0.0, 0.0, 0.0, 0.0, 0.0, 0.0, 0.0, 0.0, 0.0, 1.6946822051969867E9, 0.0, 2023-09-14 11:03:25.196
44.0, -15.690924607625558, 187500.0, 187500.0, 187500.0, 187500.0, 187500.0, 187500.0, 187500.0, 0.028, -0.032, 1.01, 192.0, 0.0, 0.0, 0.0, 0.0, 0.0, 0.0, 0.0, 0.0, 0.0, 1.6946822051970484E9, 0.0, 2023-09-14 11:03:25.197
45.0, -34.1758172721645, 187500.0, 187500.0, 187500.0, 187500.0, 187500.0, 187500.0, 187500.0, 0.028, -0.032, 1.01, 192.0, 0.0, 0.0, 0.0, 0.0, 0.0, 0.0, 0.0, 0.0, 0.0, 1.694682205197091E9, 0.0, 2023-09-14 11:03:25.197
46.0, -38.35559348530692, 187500.0, 187500.0, 187500.0, 187500.0, 187500.0, 187500.0, 187500.0, 0.028, -0.032, 1.01, 192.0, 0.0, 0.0, 0.0, 0.0, 0.0, 0.0, 0.0, 0.0, 0.0, 1.6946822051971343E9, 0.0, 2023-09-14 11:03:25.197
47.0, -38.19913127411977, 187500.0, 187500.0, 187500.0, 187500.0, 187500.0, 187500.0, 187500.0, 0.032, -0.024, 1.004, 192.0, 1.0, 0.0, 255.0, 64.0, 31.0, 96.0, 0.0, 0.0, 0.0, 1.6946822051972702E9, 0.0, 2023-09-14 11:03:25.197
48.0, -33.2146922605863, 187500.0, 187500.0, 187500.0, 187500.0, 187500.0, 187500.0, 187500.0, 0.032, -0.024, 1.004, 192.0, 0.0, 0.0, 0.0, 0.0, 0.0, 0.0, 0.0, 0.0, 0.0, 1.6946822051973221E9, 0.0, 2023-09-14 11:03:25.197
49.0, -15.221537974064109, 187500.0, 187500.0, 187500.0, 187500.0, 187500.0, 187500.0, 187500.0, 0.032, -0.024, 1.004, 192.0, 0.0, 0.0, 0.0, 0.0, 0.0, 0.0, 0.0, 0.0, 0.0, 1.6946822051973646E9, 0.0, 2023-09-14 11:03:25.197
50.0, -10.66178210518147, 187500.0, 187500.0, 187500.0, 187500.0, 187500.0, 187500.0, 187500.0, 0.032, -0.024, 1.004, 192.0, 0.0, 0.0, 0.0, 0.0, 0.0, 0.0, 0.0, 0.0, 0.0, 1.6946822051974072E9, 0.0, 2023-09-14 11:03:25.197
51.0, -10.617078616270854, 187500.0, 187500.0, 187500.0, 187500.0, 187500.0, 187500.0, 187500.0, 0.032, -0.024, 1.004, 192.0, 0.0, 0.0, 0.0, 0.0, 0.0, 0.0, 0.0, 0.0, 0.0, 1.6946822051974554E9, 0.0, 2023-09-14 11:03:25.197
52.0, -15.735628096536171, 187500.0, 187500.0, 187500.0, 187500.0, 187500.0, 187500.0, 187500.0, 0.032, -0.024, 1.004, 192.0, 0.0, 0.0, 0.0, 0.0, 0.0, 0.0, 0.0, 0.0, 0.0, 1.6946822051975467E9, 0.0, 2023-09-14 11:03:25.197
53.0, -34.06405854988796, 187500.0, 187500.0, 187500.0, 187500.0, 187500.0, 187500.0, 187500.0, 0.032, -0.024, 1.004, 192.0, 0.0, 0.0, 0.0, 0.0, 0.0, 0.0, 0.0, 0.0, 0.0, 1.6946822051975877E9, 0.0, 2023-09-14 11:03:25.197
54.0, -38.310889996396305, 187500.0, 187500.0, 187500.0, 187500.0, 187500.0, 187500.0, 187500.0, 0.032, -0.024, 1.004, 192.0, 0.0, 0.0, 0.0, 0.0, 0.0, 0.0, 0.0, 0.0, 0.0, 1.6946822051976156E9, 0.0, 2023-09-14 11:03:25.197
55.0, -37.997965574022004, 187500.0, 187500.0, 187500.0, 187500.0, 187500.0, 187500.0, 187500.0, 0.032, -0.024, 1.004, 192.0, 0.0, 0.0, 0.0, 0.0, 0.0, 0.0, 0.0, 0.0, 0.0, 1.6946822051976435E9, 0.0, 2023-09-14 11:03:25.197
56.0, -33.10293353830976, 187500.0, 187500.0, 187500.0, 187500.0, 187500.0, 187500.0, 187500.0, 0.032, -0.024, 1.004, 192.0, 0.0, 0.0, 0.0, 0.0, 0.0, 0.0, 0.0, 0.0, 0.0, 1.6946822051976695E9, 0.0, 2023-09-14 11:03:25.197
57.0, -15.221537974064109, 187500.0, 187500.0, 187500.0, 187500.0, 187500.0, 187500.0, 187500.0, 0.032, -0.022, 1.004, 192.0, 1.0, 0.0, 255.0, 80.0, 31.0, 96.0, 0.0, 0.0, 0.0, 1.6946822051976955E9, 0.0, 2023-09-14 11:03:25.197
58.0, -10.72883733854739, 187500.0, 187500.0, 187500.0, 187500.0, 187500.0, 187500.0, 187500.0, 0.032, -0.022, 1.004, 192.0, 0.0, 0.0, 0.0, 0.0, 0.0, 0.0, 0.0, 0.0, 0.0, 1.6946822051977243E9, 0.0, 2023-09-14 11:03:25.197
59.0, -10.527671638449627, 187500.0, 187500.0, 187500.0, 187500.0, 187500.0, 187500.0, 187500.0, 0.032, -0.022, 1.004, 192.0, 0.0, 0.0, 0.0, 0.0, 0.0, 0.0, 0.0, 0.0, 0.0, 1.6946822051977527E9, 0.0, 2023-09-14 11:03:25.197
60.0, -15.601517629804329, 187500.0, 187500.0, 187500.0, 187500.0, 187500.0, 187500.0, 187500.0, 0.032, -0.022, 1.004, 192.0, 0.0, 0.0, 0.0, 0.0, 0.0, 0.0, 0.0, 0.0, 0.0, 1.694682205197781E9, 0.0, 2023-09-14 11:03:25.197
61.0, -33.90759633870081, 187500.0, 187500.0, 187500.0, 187500.0, 187500.0, 187500.0, 187500.0, 0.032, -0.022, 1.004, 192.0, 0.0, 0.0, 0.0, 0.0, 0.0, 0.0, 0.0, 0.0, 0.0, 1.6946822051978087E9, 0.0, 2023-09-14 11:03:25.197
62.0, -38.26618650748569, 187500.0, 187500.0, 187500.0, 187500.0, 187500.0, 187500.0, 187500.0, 0.032, -0.022, 1.004, 192.0, 0.0, 0.0, 0.0, 0.0, 0.0, 0.0, 0.0, 0.0, 0.0, 1.6946822051981149E9, 0.0, 2023-09-14 11:03:25.198
63.0, -38.08737255184324, 187500.0, 187500.0, 187500.0, 187500.0, 187500.0, 187500.0, 187500.0, 0.032, -0.022, 1.004, 192.0, 0.0, 0.0, 0.0, 0.0, 0.0, 0.0, 0.0, 0.0, 0.0, 1.69468220519815E9, 0.0, 2023-09-14 11:03:25.198
64.0, -33.751134127513666, 187500.0, 187500.0, 187500.0, 187500.0, 187500.0, 187500.0, 187500.0, 0.032, -0.022, 1.004, 192.0, 0.0, 0.0, 0.0, 0.0, 0.0, 0.0, 0.0, 0.0, 0.0, 1.6946822051981788E9, 0.0, 2023-09-14 11:03:25.198
65.0, -14.886261807234504, 187500.0, 187500.0, 187500.0, 187500.0, 187500.0, 187500.0, 187500.0, 0.032, -0.022, 1.004, 192.0, 0.0, 0.0, 0.0, 0.0, 0.0, 0.0, 0.0, 0.0, 0.0, 1.6946822051982217E9, 0.0, 2023-09-14 11:03:25.198
66.0, -10.460616405083705, 187500.0, 187500.0, 187500.0, 187500.0, 187500.0, 187500.0, 187500.0, 0.032, -0.022, 1.004, 192.0, 0.0, 0.0, 0.0, 0.0, 0.0, 0.0, 0.0, 0.0, 0.0, 1.6946822051982496E9, 0.0, 2023-09-14 11:03:25.198
67.0, -10.34885768280717, 187500.0, 187500.0, 187500.0, 187500.0, 187500.0, 187500.0, 187500.0, 0.034, -0.022, 1.008, 192.0, 1.0, 16.0, 255.0, 80.0, 31.0, 128.0, 0.0, 0.0, 0.0, 1.6946822051982784E9, 0.0, 2023-09-14 11:03:25.198
68.0, -15.512110651983102, 187500.0, 187500.0, 187500.0, 187500.0, 187500.0, 187500.0, 187500.0, 0.034, -0.022, 1.008, 192.0, 0.0, 0.0, 0.0, 0.0, 0.0, 0.0, 0.0, 0.0, 0.0, 1.6946822051983988E9, 0.0, 2023-09-14 11:03:25.198
69.0, -34.086410294343274, 187500.0, 187500.0, 187500.0, 187500.0, 187500.0, 187500.0, 187500.0, 0.034, -0.022, 1.008, 192.0, 0.0, 0.0, 0.0, 0.0, 0.0, 0.0, 0.0, 0.0, 0.0, 1.69468220519847E9, 0.0, 2023-09-14 11:03:25.198
70.0, -38.243834763030385, 187500.0, 187500.0, 187500.0, 187500.0, 187500.0, 187500.0, 187500.0, 0.034, -0.022, 1.008, 192.0, 0.0, 0.0, 0.0, 0.0, 0.0, 0.0, 0.0, 0.0, 0.0, 1.694682205198526E9, 0.0, 2023-09-14 11:03:25.198
71.0, -37.84150336283486, 187500.0, 187500.0, 187500.0, 187500.0, 187500.0, 187500.0, 187500.0, 0.034, -0.022, 1.008, 192.0, 0.0, 0.0, 0.0, 0.0, 0.0, 0.0, 0.0, 0.0, 0.0, 1.6946822051985588E9, 0.0, 2023-09-14 11:03:25.198
72.0, -33.2146922605863, 187500.0, 187500.0, 187500.0, 187500.0, 187500.0, 187500.0, 187500.0, 0.034, -0.022, 1.008, 192.0, 0.0, 0.0, 0.0, 0.0, 0.0, 0.0, 0.0, 0.0, 0.0, 1.694682205198589E9, 0.0, 2023-09-14 11:03:25.198
73.0, -15.087427507332267, 187500.0, 187500.0, 187500.0, 187500.0, 187500.0, 187500.0, 187500.0, 0.034, -0.022, 1.008, 192.0, 0.0, 0.0, 0.0, 0.0, 0.0, 0.0, 0.0, 0.0, 0.0, 1.6946822051986182E9, 0.0, 2023-09-14 11:03:25.198
74.0, -10.95235478310046, 187500.0, 187500.0, 187500.0, 187500.0, 187500.0, 187500.0, 187500.0, 0.034, -0.022, 1.008, 192.0, 0.0, 0.0, 0.0, 0.0, 0.0, 0.0, 0.0, 0.0, 0.0, 1.6946822051986487E9, 0.0, 2023-09-14 11:03:25.198
75.0, -10.930003038645154, 187500.0, 187500.0, 187500.0, 187500.0, 187500.0, 187500.0, 187500.0, 0.034, -0.022, 1.008, 192.0, 0.0, 0.0, 0.0, 0.0, 0.0, 0.0, 0.0, 0.0, 0.0, 1.6946822051986785E9, 0.0, 2023-09-14 11:03:25.198
76.0, -15.422703674161873, 187500.0, 187500.0, 187500.0, 187500.0, 187500.0, 187500.0, 187500.0, 0.034, -0.022, 1.008, 192.0, 0.0, 0.0, 0.0, 0.0, 0.0, 0.0, 0.0, 0.0, 0.0, 1.694682205198707E9, 0.0, 2023-09-14 11:03:25.198
77.0, -33.66172714969244, 187500.0, 187500.0, 187500.0, 187500.0, 187500.0, 187500.0, 187500.0, 0.034, -0.022, 1.004, 192.0, 1.0, 16.0, 255.0, 80.0, 31.0, 96.0, 0.0, 0.0, 0.0, 1.6946822051988287E9, 0.0, 2023-09-14 11:03:25.198
78.0, -37.79679987392424, 187500.0, 187500.0, 187500.0, 187500.0, 187500.0, 187500.0, 187500.0, 0.034, -0.022, 1.004, 192.0, 0.0, 0.0, 0.0, 0.0, 0.0, 0.0, 0.0, 0.0, 0.0, 1.694682205198872E9, 0.0, 2023-09-14 11:03:25.198
79.0, -38.22148301857508, 187500.0, 187500.0, 187500.0, 187500.0, 187500.0, 187500.0, 187500.0, 0.034, -0.022, 1.004, 192.0, 0.0, 0.0, 0.0, 0.0, 0.0, 0.0, 0.0, 0.0, 0.0, 1.6946822051989048E9, 0.0, 2023-09-14 11:03:25.198
80.0, -33.28174749395222, 187500.0, 187500.0, 187500.0, 187500.0, 187500.0, 187500.0, 187500.0, 0.034, -0.022, 1.004, 192.0, 0.0, 0.0, 0.0, 0.0, 0.0, 0.0, 0.0, 0.0, 0.0, 1.6946822051989377E9, 0.0, 2023-09-14 11:03:25.198
81.0, -14.953317040600425, 187500.0, 187500.0, 187500.0, 187500.0, 187500.0, 187500.0, 187500.0, 0.034, -0.022, 1.004, 192.0, 0.0, 0.0, 0.0, 0.0, 0.0, 0.0, 0.0, 0.0, 0.0, 1.6946822051989632E9, 0.0, 2023-09-14 11:03:25.198
82.0, -10.505319893994319, 187500.0, 187500.0, 187500.0, 187500.0, 187500.0, 187500.0, 187500.0, 0.034, -0.022, 1.004, 192.0, 0.0, 0.0, 0.0, 0.0, 0.0, 0.0, 0.0, 0.0, 0.0, 1.69468220519899E9, 0.0, 2023-09-14 11:03:25.198
83.0, -10.527671638449627, 187500.0, 187500.0, 187500.0, 187500.0, 187500.0, 187500.0, 187500.0, 0.034, -0.022, 1.004, 192.0, 0.0, 0.0, 0.0, 0.0, 0.0, 0.0, 0.0, 0.0, 0.0, 1.6946822051990185E9, 0.0, 2023-09-14 11:03:25.199
84.0, -15.556814140893716, 187500.0, 187500.0, 187500.0, 187500.0, 187500.0, 187500.0, 187500.0, 0.034, -0.022, 1.004, 192.0, 0.0, 0.0, 0.0, 0.0, 0.0, 0.0, 0.0, 0.0, 0.0, 1.6946822051990488E9, 0.0, 2023-09-14 11:03:25.199
85.0, -33.95229982761143, 187500.0, 187500.0, 187500.0, 187500.0, 187500.0, 187500.0, 187500.0, 0.034, -0.022, 1.004, 192.0, 0.0, 0.0, 0.0, 0.0, 0.0, 0.0, 0.0, 0.0, 0.0, 1.6946822051990805E9, 0.0, 2023-09-14 11:03:25.199
86.0, -38.04266906293262, 187500.0, 187500.0, 187500.0, 187500.0, 187500.0, 187500.0, 187500.0, 0.034, -0.022, 1.004, 192.0, 0.0, 0.0, 0.0, 0.0, 0.0, 0.0, 0.0, 0.0, 0.0, 1.6946822051991107E9, 0.0, 2023-09-14 11:03:25.199
87.0, -38.13207604075385, 187500.0, 187500.0, 187500.0, 187500.0, 187500.0, 187500.0, 187500.0, 0.036000000000000004, -0.022, 1.006, 192.0, 1.0, 32.0, 255.0, 80.0, 31.0, 112.0, 0.0, 0.0, 0.0, 1.6946822051991527E9, 0.0, 2023-09-14 11:03:25.199
88.0, -33.66172714969244, 187500.0, 187500.0, 187500.0, 187500.0, 187500.0, 187500.0, 187500.0, 0.036000000000000004, -0.022, 1.006, 192.0, 0.0, 0.0, 0.0, 0.0, 0.0, 0.0, 0.0, 0.0, 0.0, 1.6946822051992004E9, 0.0, 2023-09-14 11:03:25.199
89.0, -15.266241462974724, 187500.0, 187500.0, 187500.0, 187500.0, 187500.0, 187500.0, 187500.0, 0.036000000000000004, -0.022, 1.006, 192.0, 0.0, 0.0, 0.0, 0.0, 0.0, 0.0, 0.0, 0.0, 0.0, 1.694682205199262E9, 0.0, 2023-09-14 11:03:25.199
90.0, -10.862947805279232, 187500.0, 187500.0, 187500.0, 187500.0, 187500.0, 187500.0, 187500.0, 0.036000000000000004, -0.022, 1.006, 192.0, 0.0, 0.0, 0.0, 0.0, 0.0, 0.0, 0.0, 0.0, 0.0, 1.6946822051993437E9, 0.0, 2023-09-14 11:03:25.199
91.0, -10.57237512736024, 187500.0, 187500.0, 187500.0, 187500.0, 187500.0, 187500.0, 187500.0, 0.036000000000000004, -0.022, 1.006, 192.0, 0.0, 0.0, 0.0, 0.0, 0.0, 0.0, 0.0, 0.0, 0.0, 1.6946822051993868E9, 0.0, 2023-09-14 11:03:25.199
92.0, -15.512110651983102, 187500.0, 187500.0, 187500.0, 187500.0, 187500.0, 187500.0, 187500.0, 0.036000000000000004, -0.022, 1.006, 192.0, 0.0, 0.0, 0.0, 0.0, 0.0, 0.0, 0.0, 0.0, 0.0, 1.6946822051994407E9, 0.0, 2023-09-14 11:03:25.199
93.0, -33.751134127513666, 187500.0, 187500.0, 187500.0, 187500.0, 187500.0, 187500.0, 187500.0, 0.036000000000000004, -0.022, 1.006, 192.0, 0.0, 0.0, 0.0, 0.0, 0.0, 0.0, 0.0, 0.0, 0.0, 1.6946822051996007E9, 0.0, 2023-09-14 11:03:25.199
94.0, -37.95326208511139, 187500.0, 187500.0, 187500.0, 187500.0, 187500.0, 187500.0, 187500.0, 0.036000000000000004, -0.022, 1.006, 192.0, 0.0, 0.0, 0.0, 0.0, 0.0, 0.0, 0.0, 0.0, 0.0, 1.6946822051996307E9, 0.0, 2023-09-14 11:03:25.199
95.0, -38.13207604075385, 187500.0, 187500.0, 187500.0, 187500.0, 187500.0, 187500.0, 187500.0, 0.036000000000000004, -0.022, 1.006, 192.0, 0.0, 0.0, 0.0, 0.0, 0.0, 0.0, 0.0, 0.0, 0.0, 1.694682205199659E9, 0.0, 2023-09-14 11:03:25.199
96.0, -33.46056144959467, 187500.0, 187500.0, 187500.0, 187500.0, 187500.0, 187500.0, 187500.0, 0.036000000000000004, -0.022, 1.006, 192.0, 0.0, 0.0, 0.0, 0.0, 0.0, 0.0, 0.0, 0.0, 0.0, 1.6946822051996884E9, 0.0, 2023-09-14 11:03:25.199
97.0, -14.953317040600425, 187500.0, 187500.0, 187500.0, 187500.0, 187500.0, 187500.0, 187500.0, 0.028, -0.026000000000000002, 1.004, 192.0, 0.0, 224.0, 255.0, 48.0, 31.0, 96.0, 0.0, 0.0, 0.0, 1.694682205199726E9, 0.0, 2023-09-14 11:03:25.199
98.0, -10.862947805279232, 187500.0, 187500.0, 187500.0, 187500.0, 187500.0, 187500.0, 187500.0, 0.028, -0.026000000000000002, 1.004, 192.0, 0.0, 0.0, 0.0, 0.0, 0.0, 0.0, 0.0, 0.0, 0.0, 1.6946822051997626E9, 0.0, 2023-09-14 11:03:25.199
99.0, -10.72883733854739, 187500.0, 187500.0, 187500.0, 187500.0, 187500.0, 187500.0, 187500.0, 0.028, -0.026000000000000002, 1.004, 192.0, 0.0, 0.0, 0.0, 0.0, 0.0, 0.0, 0.0, 0.0, 0.0, 1.6946822051997883E9, 0.0, 2023-09-14 11:03:25.199
100.0, -15.489758907527795, 187500.0, 187500.0, 187500.0, 187500.0, 187500.0, 187500.0, 187500.0, 0.028, -0.026000000000000002, 1.004, 192.0, 0.0, 0.0, 0.0, 0.0, 0.0, 0.0, 0.0, 0.0, 0.0, 1.6946822051998136E9, 0.0, 2023-09-14 11:03:25.199
101.0, -34.1758172721645, 187500.0, 187500.0, 187500.0, 187500.0, 187500.0, 187500.0, 187500.0, 0.028, -0.026000000000000002, 1.004, 192.0, 0.0, 0.0, 0.0, 0.0, 0.0, 0.0, 0.0, 0.0, 0.0, 1.6946822051998415E9, 0.0, 2023-09-14 11:03:25.199
102.0, -38.310889996396305, 187500.0, 187500.0, 187500.0, 187500.0, 187500.0, 187500.0, 187500.0, 0.028, -0.026000000000000002, 1.004, 192.0, 0.0, 0.0, 0.0, 0.0, 0.0, 0.0, 0.0, 0.0, 0.0, 1.694682205199868E9, 0.0, 2023-09-14 11:03:25.199
103.0, -38.08737255184324, 187500.0, 187500.0, 187500.0, 187500.0, 187500.0, 187500.0, 187500.0, 0.028, -0.026000000000000002, 1.004, 192.0, 0.0, 0.0, 0.0, 0.0, 0.0, 0.0, 0.0, 0.0, 0.0, 1.6946822051998963E9, 0.0, 2023-09-14 11:03:25.199
104.0, -33.77348587196897, 187500.0, 187500.0, 187500.0, 187500.0, 187500.0, 187500.0, 187500.0, 0.028, -0.026000000000000002, 1.004, 192.0, 0.0, 0.0, 0.0, 0.0, 0.0, 0.0, 0.0, 0.0, 0.0, 1.6946822051999242E9, 0.0, 2023-09-14 11:03:25.199
105.0, -15.243889718519418, 187500.0, 187500.0, 187500.0, 187500.0, 187500.0, 187500.0, 187500.0, 0.028, -0.026000000000000002, 1.004, 192.0, 0.0, 0.0, 0.0, 0.0, 0.0, 0.0, 0.0, 0.0, 0.0, 1.6946822051999576E9, 0.0, 2023-09-14 11:03:25.199
106.0, -10.415912916173092, 187500.0, 187500.0, 187500.0, 187500.0, 187500.0, 187500.0, 187500.0, 0.028, -0.026000000000000002, 1.004, 192.0, 0.0, 0.0, 0.0, 0.0, 0.0, 0.0, 0.0, 0.0, 0.0, 1.694682205199988E9, 0.0, 2023-09-14 11:03:25.199
107.0, -10.594726871815547, 187500.0, 187500.0, 187500.0, 187500.0, 187500.0, 187500.0, 187500.0, 0.028, -0.026000000000000002, 1.004, 192.0, 0.0, 224.0, 255.0, 48.0, 31.0, 96.0, 0.0, 0.0, 0.0, 1.6946822052000134E9, 0.0, 2023-09-14 11:03:25.200
108.0, -15.579165885349022, 187500.0, 187500.0, 187500.0, 187500.0, 187500.0, 187500.0, 187500.0, 0.028, -0.026000000000000002, 1.004, 192.0, 0.0, 0.0, 0.0, 0.0, 0.0, 0.0, 0.0, 0.0, 0.0, 1.6946822052001336E9, 0.0, 2023-09-14 11:03:25.200
109.0, -33.885244594245506, 187500.0, 187500.0, 187500.0, 187500.0, 187500.0, 187500.0, 187500.0, 0.028, -0.026000000000000002, 1.004, 192.0, 0.0, 0.0, 0.0, 0.0, 0.0, 0.0, 0.0, 0.0, 0.0, 1.6946822052001667E9, 0.0, 2023-09-14 11:03:25.200
110.0, -38.48970395203876, 187500.0, 187500.0, 187500.0, 187500.0, 187500.0, 187500.0, 187500.0, 0.028, -0.026000000000000002, 1.004, 192.0, 0.0, 0.0, 0.0, 0.0, 0.0, 0.0, 0.0, 0.0, 0.0, 1.6946822052001965E9, 0.0, 2023-09-14 11:03:25.200
111.0, -38.243834763030385, 187500.0, 187500.0, 187500.0, 187500.0, 187500.0, 187500.0, 187500.0, 0.028, -0.026000000000000002, 1.004, 192.0, 0.0, 0.0, 0.0, 0.0, 0.0, 0.0, 0.0, 0.0, 0.0, 1.694682205200222E9, 0.0, 2023-09-14 11:03:25.200
112.0, -33.34880272731814, 187500.0, 187500.0, 187500.0, 187500.0, 187500.0, 187500.0, 187500.0, 0.028, -0.026000000000000002, 1.004, 192.0, 0.0, 0.0, 0.0, 0.0, 0.0, 0.0, 0.0, 0.0, 0.0, 1.6946822052002473E9, 0.0, 2023-09-14 11:03:25.200
113.0, -15.06507576287696, 187500.0, 187500.0, 187500.0, 187500.0, 187500.0, 187500.0, 187500.0, 0.028, -0.026000000000000002, 1.004, 192.0, 0.0, 0.0, 0.0, 0.0, 0.0, 0.0, 0.0, 0.0, 0.0, 1.694682205200275E9, 0.0, 2023-09-14 11:03:25.200
114.0, -10.818244316368618, 187500.0, 187500.0, 187500.0, 187500.0, 187500.0, 187500.0, 187500.0, 0.028, -0.026000000000000002, 1.004, 192.0, 0.0, 0.0, 0.0, 0.0, 0.0, 0.0, 0.0, 0.0, 0.0, 1.6946822052003121E9, 0.0, 2023-09-14 11:03:25.200
115.0, -10.438264660628398, 187500.0, 187500.0, 187500.0, 187500.0, 187500.0, 187500.0, 187500.0, 0.028, -0.026000000000000002, 1.004, 192.0, 0.0, 0.0, 0.0, 0.0, 0.0, 0.0, 0.0, 0.0, 0.0, 1.6946822052003431E9, 0.0, 2023-09-14 11:03:25.200
116.0, -15.579165885349022, 187500.0, 187500.0, 187500.0, 187500.0, 187500.0, 187500.0, 187500.0, 0.028, -0.026000000000000002, 1.004, 192.0, 0.0, 0.0, 0.0, 0.0, 0.0, 0.0, 0.0, 0.0, 0.0, 1.6946822052003715E9, 0.0, 2023-09-14 11:03:25.200
117.0, -34.01935506097735, 187500.0, 187500.0, 187500.0, 187500.0, 187500.0, 187500.0, 187500.0, 0.034, -0.024, 1.002, 192.0, 1.0, 16.0, 255.0, 64.0, 31.0, 80.0, 0.0, 0.0, 0.0, 1.6946822052004008E9, 0.0, 2023-09-14 11:03:25.200
118.0, -38.26618650748569, 187500.0, 187500.0, 187500.0, 187500.0, 187500.0, 187500.0, 187500.0, 0.034, -0.024, 1.002, 192.0, 0.0, 0.0, 0.0, 0.0, 0.0, 0.0, 0.0, 0.0, 0.0, 1.694682205200431E9, 0.0, 2023-09-14 11:03:25.200
119.0, -38.19913127411977, 187500.0, 187500.0, 187500.0, 187500.0, 187500.0, 187500.0, 187500.0, 0.034, -0.024, 1.002, 192.0, 0.0, 0.0, 0.0, 0.0, 0.0, 0.0, 0.0, 0.0, 0.0, 1.694682205200457E9, 0.0, 2023-09-14 11:03:25.200
120.0, -33.12528528276507, 187500.0, 187500.0, 187500.0, 187500.0, 187500.0, 187500.0, 187500.0, 0.034, -0.024, 1.002, 192.0, 0.0, 0.0, 0.0, 0.0, 0.0, 0.0, 0.0, 0.0, 0.0, 1.6946822052004828E9, 0.0, 2023-09-14 11:03:25.200
121.0, -14.886261807234504, 187500.0, 187500.0, 187500.0, 187500.0, 187500.0, 187500.0, 187500.0, 0.034, -0.024, 1.002, 192.0, 0.0, 0.0, 0.0, 0.0, 0.0, 0.0, 0.0, 0.0, 0.0, 1.6946822056754165E9, 0.0, 2023-09-14 11:03:25.675
122.0, -10.550023382904934, 187500.0, 187500.0, 187500.0, 187500.0, 187500.0, 187500.0, 187500.0, 0.034, -0.024, 1.002, 192.0, 0.0, 0.0, 0.0, 0.0, 0.0, 0.0, 0.0, 0.0, 0.0, 1.6946822056755044E9, 0.0, 2023-09-14 11:03:25.675
123.0, -10.527671638449627, 187500.0, 187500.0, 187500.0, 187500.0, 187500.0, 187500.0, 187500.0, 0.034, -0.024, 1.002, 192.0, 0.0, 0.0, 0.0, 0.0, 0.0, 0.0, 0.0, 0.0, 0.0, 1.694682205675756E9, 0.0, 2023-09-14 11:03:25.675
124.0, -15.512110651983102, 187500.0, 187500.0, 187500.0, 187500.0, 187500.0, 187500.0, 187500.0, 0.034, -0.024, 1.002, 192.0, 0.0, 0.0, 0.0, 0.0, 0.0, 0.0, 0.0, 0.0, 0.0, 1.6946822056757984E9, 0.0, 2023-09-14 11:03:25.675
125.0, -33.79583761642428, 187500.0, 187500.0, 187500.0, 187500.0, 187500.0, 187500.0, 187500.0, 0.034, -0.024, 1.002, 192.0, 0.0, 0.0, 0.0, 0.0, 0.0, 0.0, 0.0, 0.0, 0.0, 1.6946822056758373E9, 0.0, 2023-09-14 11:03:25.675
126.0, -37.68504115164771, 187500.0, 187500.0, 187500.0, 187500.0, 187500.0, 187500.0, 187500.0, 0.036000000000000004, -0.024, 1.008, 192.0, 1.0, 32.0, 255.0, 64.0, 31.0, 128.0, 0.0, 0.0, 0.0, 1.694682205675875E9, 0.0, 2023-09-14 11:03:25.675
127.0, -37.95326208511139, 187500.0, 187500.0, 187500.0, 187500.0, 187500.0, 187500.0, 187500.0, 0.036000000000000004, -0.024, 1.008, 192.0, 0.0, 0.0, 0.0, 0.0, 0.0, 0.0, 0.0, 0.0, 0.0, 1.694682205675921E9, 0.0, 2023-09-14 11:03:25.675
128.0, -33.39350621622875, 187500.0, 187500.0, 187500.0, 187500.0, 187500.0, 187500.0, 187500.0, 0.036000000000000004, -0.024, 1.008, 192.0, 0.0, 0.0, 0.0, 0.0, 0.0, 0.0, 0.0, 0.0, 0.0, 1.6946822056759622E9, 0.0, 2023-09-14 11:03:25.675
129.0, -14.863910062779196, 187500.0, 187500.0, 187500.0, 187500.0, 187500.0, 187500.0, 187500.0, 0.036000000000000004, -0.024, 1.008, 192.0, 0.0, 0.0, 0.0, 0.0, 0.0, 0.0, 0.0, 0.0, 0.0, 1.6946822056760051E9, 0.0, 2023-09-14 11:03:25.676
130.0, -10.527671638449627, 187500.0, 187500.0, 187500.0, 187500.0, 187500.0, 187500.0, 187500.0, 0.036000000000000004, -0.024, 1.008, 192.0, 0.0, 0.0, 0.0, 0.0, 0.0, 0.0, 0.0, 0.0, 0.0, 1.6946822056760473E9, 0.0, 2023-09-14 11:03:25.676
131.0, -10.72883733854739, 187500.0, 187500.0, 187500.0, 187500.0, 187500.0, 187500.0, 187500.0, 0.036000000000000004, -0.024, 1.008, 192.0, 0.0, 0.0, 0.0, 0.0, 0.0, 0.0, 0.0, 0.0, 0.0, 1.6946822056760902E9, 0.0, 2023-09-14 11:03:25.676
132.0, -15.37800018525126, 187500.0, 187500.0, 187500.0, 187500.0, 187500.0, 187500.0, 187500.0, 0.036000000000000004, -0.024, 1.008, 192.0, 0.0, 0.0, 0.0, 0.0, 0.0, 0.0, 0.0, 0.0, 0.0, 1.6946822056761327E9, 0.0, 2023-09-14 11:03:25.676
133.0, -33.84054110533489, 187500.0, 187500.0, 187500.0, 187500.0, 187500.0, 187500.0, 187500.0, 0.036000000000000004, -0.024, 1.008, 192.0, 0.0, 0.0, 0.0, 0.0, 0.0, 0.0, 0.0, 0.0, 0.0, 1.6946822056761744E9, 0.0, 2023-09-14 11:03:25.676
134.0, -38.35559348530692, 187500.0, 187500.0, 187500.0, 187500.0, 187500.0, 187500.0, 187500.0, 0.036000000000000004, -0.024, 1.008, 192.0, 0.0, 0.0, 0.0, 0.0, 0.0, 0.0, 0.0, 0.0, 0.0, 1.694682205676216E9, 0.0, 2023-09-14 11:03:25.676
135.0, -38.42264871867284, 187500.0, 187500.0, 187500.0, 187500.0, 187500.0, 187500.0, 187500.0, 0.036000000000000004, -0.024, 1.008, 192.0, 0.0, 0.0, 0.0, 0.0, 0.0, 0.0, 0.0, 0.0, 0.0, 1.6946822056762576E9, 0.0, 2023-09-14 11:03:25.676
136.0, -33.01352656048853, 187500.0, 187500.0, 187500.0, 187500.0, 187500.0, 187500.0, 187500.0, 0.036000000000000004, -0.022, 1.004, 192.0, 1.0, 32.0, 255.0, 80.0, 31.0, 96.0, 0.0, 0.0, 0.0, 1.6946822056762996E9, 0.0, 2023-09-14 11:03:25.676
137.0, -14.528633895949591, 187500.0, 187500.0, 187500.0, 187500.0, 187500.0, 187500.0, 187500.0, 0.036000000000000004, -0.022, 1.004, 192.0, 0.0, 0.0, 0.0, 0.0, 0.0, 0.0, 0.0, 0.0, 0.0, 1.694682205676345E9, 0.0, 2023-09-14 11:03:25.676
138.0, -10.371209427262476, 187500.0, 187500.0, 187500.0, 187500.0, 187500.0, 187500.0, 187500.0, 0.036000000000000004, -0.022, 1.004, 192.0, 0.0, 0.0, 0.0, 0.0, 0.0, 0.0, 0.0, 0.0, 0.0, 1.6946822056763878E9, 0.0, 2023-09-14 11:03:25.676
139.0, -10.684133849636776, 187500.0, 187500.0, 187500.0, 187500.0, 187500.0, 187500.0, 187500.0, 0.036000000000000004, -0.022, 1.004, 192.0, 0.0, 0.0, 0.0, 0.0, 0.0, 0.0, 0.0, 0.0, 0.0, 1.6946822056764855E9, 0.0, 2023-09-14 11:03:25.676
140.0, -15.623869374259638, 187500.0, 187500.0, 187500.0, 187500.0, 187500.0, 187500.0, 187500.0, 0.036000000000000004, -0.022, 1.004, 192.0, 0.0, 0.0, 0.0, 0.0, 0.0, 0.0, 0.0, 0.0, 0.0, 1.6946822056765277E9, 0.0, 2023-09-14 11:03:25.676
141.0, -33.5499684274159, 187500.0, 187500.0, 187500.0, 187500.0, 187500.0, 187500.0, 187500.0, 0.036000000000000004, -0.022, 1.004, 192.0, 0.0, 0.0, 0.0, 0.0, 0.0, 0.0, 0.0, 0.0, 0.0, 1.6946822056765687E9, 0.0, 2023-09-14 11:03:25.676
142.0, -37.930910340656084, 187500.0, 187500.0, 187500.0, 187500.0, 187500.0, 187500.0, 187500.0, 0.036000000000000004, -0.022, 1.004, 192.0, 0.0, 0.0, 0.0, 0.0, 0.0, 0.0, 0.0, 0.0, 0.0, 1.694682205676612E9, 0.0, 2023-09-14 11:03:25.676
143.0, -37.81915161837955, 187500.0, 187500.0, 187500.0, 187500.0, 187500.0, 187500.0, 187500.0, 0.036000000000000004, -0.022, 1.004, 192.0, 0.0, 0.0, 0.0, 0.0, 0.0, 0.0, 0.0, 0.0, 0.0, 1.6946822056766572E9, 0.0, 2023-09-14 11:03:25.676
144.0, -33.28174749395222, 187500.0, 187500.0, 187500.0, 187500.0, 187500.0, 187500.0, 187500.0, 0.036000000000000004, -0.022, 1.004, 192.0, 0.0, 0.0, 0.0, 0.0, 0.0, 0.0, 0.0, 0.0, 0.0, 1.6946822056767032E9, 0.0, 2023-09-14 11:03:25.676
145.0, -15.154482740698189, 187500.0, 187500.0, 187500.0, 187500.0, 187500.0, 187500.0, 187500.0, 0.036000000000000004, -0.022, 1.004, 192.0, 0.0, 0.0, 0.0, 0.0, 0.0, 0.0, 0.0, 0.0, 0.0, 1.694682205676747E9, 0.0, 2023-09-14 11:03:25.676
146.0, -10.594726871815547, 187500.0, 187500.0, 187500.0, 187500.0, 187500.0, 187500.0, 187500.0, 0.036000000000000004, -0.022, 1.004, 192.0, 1.0, 32.0, 255.0, 80.0, 31.0, 96.0, 0.0, 0.0, 0.0, 1.6946822056767924E9, 0.0, 2023-09-14 11:03:25.676
147.0, -10.639430360726163, 187500.0, 187500.0, 187500.0, 187500.0, 187500.0, 187500.0, 187500.0, 0.036000000000000004, -0.022, 1.004, 192.0, 0.0, 0.0, 0.0, 0.0, 0.0, 0.0, 0.0, 0.0, 0.0, 1.6946822056768389E9, 0.0, 2023-09-14 11:03:25.676
148.0, -15.467407163072487, 187500.0, 187500.0, 187500.0, 187500.0, 187500.0, 187500.0, 187500.0, 0.036000000000000004, -0.022, 1.004, 192.0, 0.0, 0.0, 0.0, 0.0, 0.0, 0.0, 0.0, 0.0, 0.0, 1.694682205676884E9, 0.0, 2023-09-14 11:03:25.676
149.0, -34.04170680543265, 187500.0, 187500.0, 187500.0, 187500.0, 187500.0, 187500.0, 187500.0, 0.036000000000000004, -0.022, 1.004, 192.0, 0.0, 0.0, 0.0, 0.0, 0.0, 0.0, 0.0, 0.0, 0.0, 1.6946822056769223E9, 0.0, 2023-09-14 11:03:25.676
150.0, -38.26618650748569, 187500.0, 187500.0, 187500.0, 187500.0, 187500.0, 187500.0, 187500.0, 0.036000000000000004, -0.022, 1.004, 192.0, 0.0, 0.0, 0.0, 0.0, 0.0, 0.0, 0.0, 0.0, 0.0, 1.6946822056769931E9, 0.0, 2023-09-14 11:03:25.676
151.0, -38.26618650748569, 187500.0, 187500.0, 187500.0, 187500.0, 187500.0, 187500.0, 187500.0, 0.036000000000000004, -0.022, 1.004, 192.0, 0.0, 0.0, 0.0, 0.0, 0.0, 0.0, 0.0, 0.0, 0.0, 1.6946822056770344E9, 0.0, 2023-09-14 11:03:25.677
152.0, -33.505264938505285, 187500.0, 187500.0, 187500.0, 187500.0, 187500.0, 187500.0, 187500.0, 0.036000000000000004, -0.022, 1.004, 192.0, 0.0, 0.0, 0.0, 0.0, 0.0, 0.0, 0.0, 0.0, 0.0, 1.6946822056770787E9, 0.0, 2023-09-14 11:03:25.677
153.0, -14.819206573868582, 187500.0, 187500.0, 187500.0, 187500.0, 187500.0, 187500.0, 187500.0, 0.036000000000000004, -0.022, 1.004, 192.0, 0.0, 0.0, 0.0, 0.0, 0.0, 0.0, 0.0, 0.0, 0.0, 1.6946822056771207E9, 0.0, 2023-09-14 11:03:25.677
154.0, -10.415912916173092, 187500.0, 187500.0, 187500.0, 187500.0, 187500.0, 187500.0, 187500.0, 0.036000000000000004, -0.022, 1.004, 192.0, 0.0, 0.0, 0.0, 0.0, 0.0, 0.0, 0.0, 0.0, 0.0, 1.6946822056773412E9, 0.0, 2023-09-14 11:03:25.677
155.0, -10.57237512736024, 187500.0, 187500.0, 187500.0, 187500.0, 187500.0, 187500.0, 187500.0, 0.036000000000000004, -0.022, 1.004, 192.0, 0.0, 0.0, 0.0, 0.0, 0.0, 0.0, 0.0, 0.0, 0.0, 1.6946822056773913E9, 0.0, 2023-09-14 11:03:25.677
156.0, -15.512110651983102, 187500.0, 187500.0, 187500.0, 187500.0, 187500.0, 187500.0, 187500.0, 0.034, -0.024, 1.0, 192.0, 1.0, 16.0, 255.0, 64.0, 31.0, 64.0, 0.0, 0.0, 0.0, 1.6946822056774347E9, 0.0, 2023-09-14 11:03:25.677
157.0, -34.01935506097735, 187500.0, 187500.0, 187500.0, 187500.0, 187500.0, 187500.0, 187500.0, 0.034, -0.024, 1.0, 192.0, 0.0, 0.0, 0.0, 0.0, 0.0, 0.0, 0.0, 0.0, 0.0, 1.6946822056774874E9, 0.0, 2023-09-14 11:03:25.677
158.0, -38.53440744094937, 187500.0, 187500.0, 187500.0, 187500.0, 187500.0, 187500.0, 187500.0, 0.034, -0.024, 1.0, 192.0, 0.0, 0.0, 0.0, 0.0, 0.0, 0.0, 0.0, 0.0, 0.0, 1.6946822056775303E9, 0.0, 2023-09-14 11:03:25.677
159.0, -38.08737255184324, 187500.0, 187500.0, 187500.0, 187500.0, 187500.0, 187500.0, 187500.0, 0.034, -0.024, 1.0, 192.0, 0.0, 0.0, 0.0, 0.0, 0.0, 0.0, 0.0, 0.0, 0.0, 1.6946822056775875E9, 0.0, 2023-09-14 11:03:25.677
160.0, -33.237044005041604, 187500.0, 187500.0, 187500.0, 187500.0, 187500.0, 187500.0, 187500.0, 0.034, -0.024, 1.0, 192.0, 0.0, 0.0, 0.0, 0.0, 0.0, 0.0, 0.0, 0.0, 0.0, 1.6946822056776335E9, 0.0, 2023-09-14 11:03:25.677
161.0, -14.863910062779196, 187500.0, 187500.0, 187500.0, 187500.0, 187500.0, 187500.0, 187500.0, 0.034, -0.024, 1.0, 192.0, 0.0, 0.0, 0.0, 0.0, 0.0, 0.0, 0.0, 0.0, 0.0, 1.6946822056776795E9, 0.0, 2023-09-14 11:03:25.677
162.0, -10.259450704985941, 187500.0, 187500.0, 187500.0, 187500.0, 187500.0, 187500.0, 187500.0, 0.034, -0.024, 1.0, 192.0, 0.0, 0.0, 0.0, 0.0, 0.0, 0.0, 0.0, 0.0, 0.0, 1.6946822056777213E9, 0.0, 2023-09-14 11:03:25.677
163.0, -10.72883733854739, 187500.0, 187500.0, 187500.0, 187500.0, 187500.0, 187500.0, 187500.0, 0.034, -0.024, 1.0, 192.0, 0.0, 0.0, 0.0, 0.0, 0.0, 0.0, 0.0, 0.0, 0.0, 1.6946822056777625E9, 0.0, 2023-09-14 11:03:25.677
164.0, -15.892090307723322, 187500.0, 187500.0, 187500.0, 187500.0, 187500.0, 187500.0, 187500.0, 0.034, -0.024, 1.0, 192.0, 0.0, 0.0, 0.0, 0.0, 0.0, 0.0, 0.0, 0.0, 0.0, 1.6946822056778064E9, 0.0, 2023-09-14 11:03:25.677
165.0, -33.885244594245506, 187500.0, 187500.0, 187500.0, 187500.0, 187500.0, 187500.0, 187500.0, 0.034, -0.024, 1.0, 192.0, 0.0, 0.0, 0.0, 0.0, 0.0, 0.0, 0.0, 0.0, 0.0, 1.6946822056778514E9, 0.0, 2023-09-14 11:03:25.677
166.0, -38.243834763030385, 187500.0, 187500.0, 187500.0, 187500.0, 187500.0, 187500.0, 187500.0, 0.034, -0.03, 1.002, 192.0, 1.0, 16.0, 255.0, 16.0, 31.0, 80.0, 0.0, 0.0, 0.0, 1.6946822056778994E9, 0.0, 2023-09-14 11:03:25.677
167.0, -38.04266906293262, 187500.0, 187500.0, 187500.0, 187500.0, 187500.0, 187500.0, 187500.0, 0.034, -0.03, 1.002, 192.0, 0.0, 0.0, 0.0, 0.0, 0.0, 0.0, 0.0, 0.0, 0.0, 1.6946822056779468E9, 0.0, 2023-09-14 11:03:25.677
168.0, -33.34880272731814, 187500.0, 187500.0, 187500.0, 187500.0, 187500.0, 187500.0, 187500.0, 0.034, -0.03, 1.002, 192.0, 0.0, 0.0, 0.0, 0.0, 0.0, 0.0, 0.0, 0.0, 0.0, 1.694682205678E9, 0.0, 2023-09-14 11:03:25.678
169.0, -14.975668785055731, 187500.0, 187500.0, 187500.0, 187500.0, 187500.0, 187500.0, 187500.0, 0.034, -0.03, 1.002, 192.0, 0.0, 0.0, 0.0, 0.0, 0.0, 0.0, 0.0, 0.0, 0.0, 1.6946822056782277E9, 0.0, 2023-09-14 11:03:25.678
170.0, -10.594726871815547, 187500.0, 187500.0, 187500.0, 187500.0, 187500.0, 187500.0, 187500.0, 0.034, -0.03, 1.002, 192.0, 0.0, 0.0, 0.0, 0.0, 0.0, 0.0, 0.0, 0.0, 0.0, 1.6946822056782784E9, 0.0, 2023-09-14 11:03:25.678
171.0, -10.550023382904934, 187500.0, 187500.0, 187500.0, 187500.0, 187500.0, 187500.0, 187500.0, 0.034, -0.03, 1.002, 192.0, 0.0, 0.0, 0.0, 0.0, 0.0, 0.0, 0.0, 0.0, 0.0, 1.6946822056783235E9, 0.0, 2023-09-14 11:03:25.678
172.0, -15.512110651983102, 187500.0, 187500.0, 187500.0, 187500.0, 187500.0, 187500.0, 187500.0, 0.034, -0.03, 1.002, 192.0, 0.0, 0.0, 0.0, 0.0, 0.0, 0.0, 0.0, 0.0, 0.0, 1.6946822056783688E9, 0.0, 2023-09-14 11:03:25.678
173.0, -33.77348587196897, 187500.0, 187500.0, 187500.0, 187500.0, 187500.0, 187500.0, 187500.0, 0.034, -0.03, 1.002, 192.0, 0.0, 0.0, 0.0, 0.0, 0.0, 0.0, 0.0, 0.0, 0.0, 1.6946822056784122E9, 0.0, 2023-09-14 11:03:25.678
174.0, -38.26618650748569, 187500.0, 187500.0, 187500.0, 187500.0, 187500.0, 187500.0, 187500.0, 0.034, -0.03, 1.002, 192.0, 0.0, 0.0, 0.0, 0.0, 0.0, 0.0, 0.0, 0.0, 0.0, 1.694682205678456E9, 0.0, 2023-09-14 11:03:25.678
175.0, -38.22148301857508, 187500.0, 187500.0, 187500.0, 187500.0, 187500.0, 187500.0, 187500.0, 0.034, -0.03, 1.002, 192.0, 0.0, 0.0, 0.0, 0.0, 0.0, 0.0, 0.0, 0.0, 0.0, 1.6946822056785116E9, 0.0, 2023-09-14 11:03:25.678
176.0, -33.28174749395222, 187500.0, 187500.0, 187500.0, 187500.0, 187500.0, 187500.0, 187500.0, 0.036000000000000004, -0.026000000000000002, 1.004, 192.0, 1.0, 32.0, 255.0, 48.0, 31.0, 96.0, 0.0, 0.0, 0.0, 1.694682205678561E9, 0.0, 2023-09-14 11:03:25.678
177.0, -14.953317040600425, 187500.0, 187500.0, 187500.0, 187500.0, 187500.0, 187500.0, 187500.0, 0.036000000000000004, -0.026000000000000002, 1.004, 192.0, 0.0, 0.0, 0.0, 0.0, 0.0, 0.0, 0.0, 0.0, 0.0, 1.6946822056786072E9, 0.0, 2023-09-14 11:03:25.678
178.0, -10.862947805279232, 187500.0, 187500.0, 187500.0, 187500.0, 187500.0, 187500.0, 187500.0, 0.036000000000000004, -0.026000000000000002, 1.004, 192.0, 0.0, 0.0, 0.0, 0.0, 0.0, 0.0, 0.0, 0.0, 0.0, 1.6946822056786501E9, 0.0, 2023-09-14 11:03:25.678
179.0, -10.684133849636776, 187500.0, 187500.0, 187500.0, 187500.0, 187500.0, 187500.0, 187500.0, 0.036000000000000004, -0.026000000000000002, 1.004, 192.0, 0.0, 0.0, 0.0, 0.0, 0.0, 0.0, 0.0, 0.0, 0.0, 1.6946822056786897E9, 0.0, 2023-09-14 11:03:25.678
180.0, -15.512110651983102, 187500.0, 187500.0, 187500.0, 187500.0, 187500.0, 187500.0, 187500.0, 0.036000000000000004, -0.026000000000000002, 1.004, 192.0, 0.0, 0.0, 0.0, 0.0, 0.0, 0.0, 0.0, 0.0, 0.0, 1.6946822056787295E9, 0.0, 2023-09-14 11:03:25.678
181.0, -34.153465527709194, 187500.0, 187500.0, 187500.0, 187500.0, 187500.0, 187500.0, 187500.0, 0.036000000000000004, -0.026000000000000002, 1.004, 192.0, 0.0, 0.0, 0.0, 0.0, 0.0, 0.0, 0.0, 0.0, 0.0, 1.6946822056787727E9, 0.0, 2023-09-14 11:03:25.678
182.0, -38.26618650748569, 187500.0, 187500.0, 187500.0, 187500.0, 187500.0, 187500.0, 187500.0, 0.036000000000000004, -0.026000000000000002, 1.004, 192.0, 0.0, 0.0, 0.0, 0.0, 0.0, 0.0, 0.0, 0.0, 0.0, 1.6946822056788187E9, 0.0, 2023-09-14 11:03:25.678
183.0, -38.445000463128146, 187500.0, 187500.0, 187500.0, 187500.0, 187500.0, 187500.0, 187500.0, 0.036000000000000004, -0.026000000000000002, 1.004, 192.0, 0.0, 0.0, 0.0, 0.0, 0.0, 0.0, 0.0, 0.0, 0.0, 1.6946822056788661E9, 0.0, 2023-09-14 11:03:25.678
184.0, -33.72878238305836, 187500.0, 187500.0, 187500.0, 187500.0, 187500.0, 187500.0, 187500.0, 0.036000000000000004, -0.026000000000000002, 1.004, 192.0, 0.0, 0.0, 0.0, 0.0, 0.0, 0.0, 0.0, 0.0, 0.0, 1.6946822056789148E9, 0.0, 2023-09-14 11:03:25.678
185.0, -15.042724018421653, 187500.0, 187500.0, 187500.0, 187500.0, 187500.0, 187500.0, 187500.0, 0.036000000000000004, -0.026000000000000002, 1.004, 192.0, 0.0, 0.0, 0.0, 0.0, 0.0, 0.0, 0.0, 0.0, 0.0, 1.6946822056790028E9, 0.0, 2023-09-14 11:03:25.679
186.0, -10.28180244944125, 187500.0, 187500.0, 187500.0, 187500.0, 187500.0, 187500.0, 187500.0, 0.04, -0.022, 1.0, 192.0, 1.0, 64.0, 255.0, 80.0, 31.0, 64.0, 0.0, 0.0, 0.0, 1.6946822056790287E9, 0.0, 2023-09-14 11:03:25.679
187.0, -10.415912916173092, 187500.0, 187500.0, 187500.0, 187500.0, 187500.0, 187500.0, 187500.0, 0.04, -0.022, 1.0, 192.0, 0.0, 0.0, 0.0, 0.0, 0.0, 0.0, 0.0, 0.0, 0.0, 1.694682205679056E9, 0.0, 2023-09-14 11:03:25.679
188.0, -15.579165885349022, 187500.0, 187500.0, 187500.0, 187500.0, 187500.0, 187500.0, 187500.0, 0.04, -0.022, 1.0, 192.0, 0.0, 0.0, 0.0, 0.0, 0.0, 0.0, 0.0, 0.0, 0.0, 1.6946822056790814E9, 0.0, 2023-09-14 11:03:25.679
189.0, -33.90759633870081, 187500.0, 187500.0, 187500.0, 187500.0, 187500.0, 187500.0, 187500.0, 0.04, -0.022, 1.0, 192.0, 0.0, 0.0, 0.0, 0.0, 0.0, 0.0, 0.0, 0.0, 0.0, 1.6946822056791077E9, 0.0, 2023-09-14 11:03:25.679
190.0, -38.33324174085161, 187500.0, 187500.0, 187500.0, 187500.0, 187500.0, 187500.0, 187500.0, 0.04, -0.022, 1.0, 192.0, 0.0, 0.0, 0.0, 0.0, 0.0, 0.0, 0.0, 0.0, 0.0, 1.6946822056791325E9, 0.0, 2023-09-14 11:03:25.679
191.0, -38.04266906293262, 187500.0, 187500.0, 187500.0, 187500.0, 187500.0, 187500.0, 187500.0, 0.04, -0.022, 1.0, 192.0, 0.0, 0.0, 0.0, 0.0, 0.0, 0.0, 0.0, 0.0, 0.0, 1.6946822056791575E9, 0.0, 2023-09-14 11:03:25.679
192.0, -33.25939574949691, 187500.0, 187500.0, 187500.0, 187500.0, 187500.0, 187500.0, 187500.0, 0.04, -0.022, 1.0, 192.0, 0.0, 0.0, 0.0, 0.0, 0.0, 0.0, 0.0, 0.0, 0.0, 1.6946822056791823E9, 0.0, 2023-09-14 11:03:25.679
193.0, -14.506282151494284, 187500.0, 187500.0, 187500.0, 187500.0, 187500.0, 187500.0, 187500.0, 0.04, -0.022, 1.0, 192.0, 0.0, 0.0, 0.0, 0.0, 0.0, 0.0, 0.0, 0.0, 0.0, 1.6946822056792076E9, 0.0, 2023-09-14 11:03:25.679
194.0, -10.482968149539012, 187500.0, 187500.0, 187500.0, 187500.0, 187500.0, 187500.0, 187500.0, 0.04, -0.022, 1.0, 192.0, 0.0, 0.0, 0.0, 0.0, 0.0, 0.0, 0.0, 0.0, 0.0, 1.6946822056792333E9, 0.0, 2023-09-14 11:03:25.679
195.0, -10.527671638449627, 187500.0, 187500.0, 187500.0, 187500.0, 187500.0, 187500.0, 187500.0, 0.04, -0.022, 1.0, 192.0, 0.0, 0.0, 0.0, 0.0, 0.0, 0.0, 0.0, 0.0, 0.0, 1.69468220567926E9, 0.0, 2023-09-14 11:03:25.679
196.0, -15.333296696340645, 187500.0, 187500.0, 187500.0, 187500.0, 187500.0, 187500.0, 187500.0, 0.038, -0.02, 1.004, 192.0, 1.0, 48.0, 255.0, 96.0, 31.0, 96.0, 0.0, 0.0, 0.0, 1.6946822056792858E9, 0.0, 2023-09-14 11:03:25.679
197.0, -33.92994808315612, 187500.0, 187500.0, 187500.0, 187500.0, 187500.0, 187500.0, 187500.0, 0.038, -0.02, 1.004, 192.0, 0.0, 0.0, 0.0, 0.0, 0.0, 0.0, 0.0, 0.0, 0.0, 1.6946822056793137E9, 0.0, 2023-09-14 11:03:25.679
198.0, -38.288538251941, 187500.0, 187500.0, 187500.0, 187500.0, 187500.0, 187500.0, 187500.0, 0.038, -0.02, 1.004, 192.0, 0.0, 0.0, 0.0, 0.0, 0.0, 0.0, 0.0, 0.0, 0.0, 1.6946822056793396E9, 0.0, 2023-09-14 11:03:25.679
199.0, -38.288538251941, 187500.0, 187500.0, 187500.0, 187500.0, 187500.0, 187500.0, 187500.0, 0.038, -0.02, 1.004, 192.0, 0.0, 0.0, 0.0, 0.0, 0.0, 0.0, 0.0, 0.0, 0.0, 1.6946822056793664E9, 0.0, 2023-09-14 11:03:25.679
200.0, -33.16998877167568, 187500.0, 187500.0, 187500.0, 187500.0, 187500.0, 187500.0, 187500.0, 0.038, -0.02, 1.004, 192.0, 0.0, 0.0, 0.0, 0.0, 0.0, 0.0, 0.0, 0.0, 0.0, 1.6946822056794403E9, 0.0, 2023-09-14 11:03:25.679
201.0, -14.729799596047354, 187500.0, 187500.0, 187500.0, 187500.0, 187500.0, 187500.0, 187500.0, 0.038, -0.02, 1.004, 192.0, 0.0, 0.0, 0.0, 0.0, 0.0, 0.0, 0.0, 0.0, 0.0, 1.6946822056794665E9, 0.0, 2023-09-14 11:03:25.679
202.0, -10.550023382904934, 187500.0, 187500.0, 187500.0, 187500.0, 187500.0, 187500.0, 187500.0, 0.038, -0.02, 1.004, 192.0, 0.0, 0.0, 0.0, 0.0, 0.0, 0.0, 0.0, 0.0, 0.0, 1.6946822056794918E9, 0.0, 2023-09-14 11:03:25.679
203.0, -10.594726871815547, 187500.0, 187500.0, 187500.0, 187500.0, 187500.0, 187500.0, 187500.0, 0.038, -0.02, 1.004, 192.0, 0.0, 0.0, 0.0, 0.0, 0.0, 0.0, 0.0, 0.0, 0.0, 1.694682205679517E9, 0.0, 2023-09-14 11:03:25.679
204.0, -15.489758907527795, 187500.0, 187500.0, 187500.0, 187500.0, 187500.0, 187500.0, 187500.0, 0.038, -0.02, 1.004, 192.0, 0.0, 0.0, 0.0, 0.0, 0.0, 0.0, 0.0, 0.0, 0.0, 1.694682205679542E9, 0.0, 2023-09-14 11:03:25.679
205.0, -33.8628928497902, 187500.0, 187500.0, 187500.0, 187500.0, 187500.0, 187500.0, 187500.0, 0.038, -0.02, 1.004, 192.0, 0.0, 0.0, 0.0, 0.0, 0.0, 0.0, 0.0, 0.0, 0.0, 1.6946822056795676E9, 0.0, 2023-09-14 11:03:25.679
206.0, -37.81915161837955, 187500.0, 187500.0, 187500.0, 187500.0, 187500.0, 187500.0, 187500.0, 0.038, -0.024, 1.008, 192.0, 1.0, 48.0, 255.0, 64.0, 31.0, 128.0, 0.0, 0.0, 0.0, 1.6946822056795995E9, 0.0, 2023-09-14 11:03:25.679
207.0, -38.04266906293262, 187500.0, 187500.0, 187500.0, 187500.0, 187500.0, 187500.0, 187500.0, 0.038, -0.024, 1.008, 192.0, 0.0, 0.0, 0.0, 0.0, 0.0, 0.0, 0.0, 0.0, 0.0, 1.6946822056796288E9, 0.0, 2023-09-14 11:03:25.679
208.0, -33.39350621622875, 187500.0, 187500.0, 187500.0, 187500.0, 187500.0, 187500.0, 187500.0, 0.038, -0.024, 1.008, 192.0, 0.0, 0.0, 0.0, 0.0, 0.0, 0.0, 0.0, 0.0, 0.0, 1.694682205679654E9, 0.0, 2023-09-14 11:03:25.679
209.0, -15.176834485153496, 187500.0, 187500.0, 187500.0, 187500.0, 187500.0, 187500.0, 187500.0, 0.038, -0.024, 1.008, 192.0, 0.0, 0.0, 0.0, 0.0, 0.0, 0.0, 0.0, 0.0, 0.0, 1.6946822056796808E9, 0.0, 2023-09-14 11:03:25.679
210.0, -10.460616405083705, 187500.0, 187500.0, 187500.0, 187500.0, 187500.0, 187500.0, 187500.0, 0.038, -0.024, 1.008, 192.0, 0.0, 0.0, 0.0, 0.0, 0.0, 0.0, 0.0, 0.0, 0.0, 1.6946822056797056E9, 0.0, 2023-09-14 11:03:25.679
211.0, -10.527671638449627, 187500.0, 187500.0, 187500.0, 187500.0, 187500.0, 187500.0, 187500.0, 0.038, -0.024, 1.008, 192.0, 0.0, 0.0, 0.0, 0.0, 0.0, 0.0, 0.0, 0.0, 0.0, 1.6946822056797307E9, 0.0, 2023-09-14 11:03:25.679
212.0, -15.288593207430031, 187500.0, 187500.0, 187500.0, 187500.0, 187500.0, 187500.0, 187500.0, 0.038, -0.024, 1.008, 192.0, 0.0, 0.0, 0.0, 0.0, 0.0, 0.0, 0.0, 0.0, 0.0, 1.6946822056797557E9, 0.0, 2023-09-14 11:03:25.679
213.0, -33.84054110533489, 187500.0, 187500.0, 187500.0, 187500.0, 187500.0, 187500.0, 187500.0, 0.038, -0.024, 1.008, 192.0, 0.0, 0.0, 0.0, 0.0, 0.0, 0.0, 0.0, 0.0, 0.0, 1.6946822056797807E9, 0.0, 2023-09-14 11:03:25.679
214.0, -38.26618650748569, 187500.0, 187500.0, 187500.0, 187500.0, 187500.0, 187500.0, 187500.0, 0.038, -0.024, 1.008, 192.0, 0.0, 0.0, 0.0, 0.0, 0.0, 0.0, 0.0, 0.0, 0.0, 1.6946822056798065E9, 0.0, 2023-09-14 11:03:25.679
215.0, -38.04266906293262, 187500.0, 187500.0, 187500.0, 187500.0, 187500.0, 187500.0, 187500.0, 0.038, -0.024, 1.008, 192.0, 0.0, 0.0, 0.0, 0.0, 0.0, 0.0, 0.0, 0.0, 0.0, 1.6946822056798756E9, 0.0, 2023-09-14 11:03:25.679
216.0, -33.684078894147746, 187500.0, 187500.0, 187500.0, 187500.0, 187500.0, 187500.0, 187500.0, 0.032, -0.022, 1.004, 192.0, 1.0, 0.0, 255.0, 80.0, 31.0, 96.0, 0.0, 0.0, 0.0, 1.6946822056799307E9, 0.0, 2023-09-14 11:03:25.679
217.0, -15.06507576287696, 187500.0, 187500.0, 187500.0, 187500.0, 187500.0, 187500.0, 187500.0, 0.032, -0.022, 1.004, 192.0, 0.0, 0.0, 0.0, 0.0, 0.0, 0.0, 0.0, 0.0, 0.0, 1.69468220567999E9, 0.0, 2023-09-14 11:03:25.679
218.0, -10.66178210518147, 187500.0, 187500.0, 187500.0, 187500.0, 187500.0, 187500.0, 187500.0, 0.032, -0.022, 1.004, 192.0, 0.0, 0.0, 0.0, 0.0, 0.0, 0.0, 0.0, 0.0, 0.0, 1.6946822056800268E9, 0.0, 2023-09-14 11:03:25.680
219.0, -10.594726871815547, 187500.0, 187500.0, 187500.0, 187500.0, 187500.0, 187500.0, 187500.0, 0.032, -0.022, 1.004, 192.0, 0.0, 0.0, 0.0, 0.0, 0.0, 0.0, 0.0, 0.0, 0.0, 1.6946822056800525E9, 0.0, 2023-09-14 11:03:25.680
220.0, -15.422703674161873, 187500.0, 187500.0, 187500.0, 187500.0, 187500.0, 187500.0, 187500.0, 0.032, -0.022, 1.004, 192.0, 0.0, 0.0, 0.0, 0.0, 0.0, 0.0, 0.0, 0.0, 0.0, 1.6946822056800785E9, 0.0, 2023-09-14 11:03:25.680
221.0, -33.818189360879586, 187500.0, 187500.0, 187500.0, 187500.0, 187500.0, 187500.0, 187500.0, 0.032, -0.022, 1.004, 192.0, 0.0, 0.0, 0.0, 0.0, 0.0, 0.0, 0.0, 0.0, 0.0, 1.6946822056801052E9, 0.0, 2023-09-14 11:03:25.680
222.0, -37.77444812946894, 187500.0, 187500.0, 187500.0, 187500.0, 187500.0, 187500.0, 187500.0, 0.032, -0.022, 1.004, 192.0, 0.0, 0.0, 0.0, 0.0, 0.0, 0.0, 0.0, 0.0, 0.0, 1.6946822056801355E9, 0.0, 2023-09-14 11:03:25.680
223.0, -37.997965574022004, 187500.0, 187500.0, 187500.0, 187500.0, 187500.0, 187500.0, 187500.0, 0.032, -0.022, 1.004, 192.0, 0.0, 0.0, 0.0, 0.0, 0.0, 0.0, 0.0, 0.0, 0.0, 1.6946822056801617E9, 0.0, 2023-09-14 11:03:25.680
224.0, -33.684078894147746, 187500.0, 187500.0, 187500.0, 187500.0, 187500.0, 187500.0, 187500.0, 0.032, -0.022, 1.004, 192.0, 0.0, 0.0, 0.0, 0.0, 0.0, 0.0, 0.0, 0.0, 0.0, 1.6946822056801872E9, 0.0, 2023-09-14 11:03:25.680
225.0, -15.132130996242882, 187500.0, 187500.0, 187500.0, 187500.0, 187500.0, 187500.0, 187500.0, 0.032, -0.022, 1.004, 192.0, 0.0, 0.0, 0.0, 0.0, 0.0, 0.0, 0.0, 0.0, 0.0, 1.694682205680212E9, 0.0, 2023-09-14 11:03:25.680
226.0, -10.415912916173092, 187500.0, 187500.0, 187500.0, 187500.0, 187500.0, 187500.0, 187500.0, 0.034, -0.028, 1.004, 192.0, 1.0, 16.0, 255.0, 32.0, 31.0, 96.0, 0.0, 0.0, 0.0, 1.694682205680243E9, 0.0, 2023-09-14 11:03:25.680
227.0, -10.594726871815547, 187500.0, 187500.0, 187500.0, 187500.0, 187500.0, 187500.0, 187500.0, 0.034, -0.028, 1.004, 192.0, 0.0, 0.0, 0.0, 0.0, 0.0, 0.0, 0.0, 0.0, 0.0, 1.6946822056802735E9, 0.0, 2023-09-14 11:03:25.680
228.0, -15.75797984099148, 187500.0, 187500.0, 187500.0, 187500.0, 187500.0, 187500.0, 187500.0, 0.034, -0.028, 1.004, 192.0, 0.0, 0.0, 0.0, 0.0, 0.0, 0.0, 0.0, 0.0, 0.0, 1.6946822056802988E9, 0.0, 2023-09-14 11:03:25.680
229.0, -33.95229982761143, 187500.0, 187500.0, 187500.0, 187500.0, 187500.0, 187500.0, 187500.0, 0.034, -0.028, 1.004, 192.0, 0.0, 0.0, 0.0, 0.0, 0.0, 0.0, 0.0, 0.0, 0.0, 1.694682205680326E9, 0.0, 2023-09-14 11:03:25.680
230.0, -38.243834763030385, 187500.0, 187500.0, 187500.0, 187500.0, 187500.0, 187500.0, 187500.0, 0.034, -0.028, 1.004, 192.0, 0.0, 0.0, 0.0, 0.0, 0.0, 0.0, 0.0, 0.0, 0.0, 1.6946822056803555E9, 0.0, 2023-09-14 11:03:25.680
231.0, -38.04266906293262, 187500.0, 187500.0, 187500.0, 187500.0, 187500.0, 187500.0, 187500.0, 0.034, -0.028, 1.004, 192.0, 0.0, 0.0, 0.0, 0.0, 0.0, 0.0, 0.0, 0.0, 0.0, 1.6946822056804328E9, 0.0, 2023-09-14 11:03:25.680
232.0, -33.237044005041604, 187500.0, 187500.0, 187500.0, 187500.0, 187500.0, 187500.0, 187500.0, 0.034, -0.028, 1.004, 192.0, 0.0, 0.0, 0.0, 0.0, 0.0, 0.0, 0.0, 0.0, 0.0, 1.6946822056804786E9, 0.0, 2023-09-14 11:03:25.680
233.0, -14.68509610713674, 187500.0, 187500.0, 187500.0, 187500.0, 187500.0, 187500.0, 187500.0, 0.034, -0.028, 1.004, 192.0, 0.0, 0.0, 0.0, 0.0, 0.0, 0.0, 0.0, 0.0, 0.0, 1.6946822056805208E9, 0.0, 2023-09-14 11:03:25.680
234.0, -10.326505938351863, 187500.0, 187500.0, 187500.0, 187500.0, 187500.0, 187500.0, 187500.0, 0.034, -0.028, 1.004, 192.0, 0.0, 0.0, 0.0, 0.0, 0.0, 0.0, 0.0, 0.0, 0.0, 1.694682205680612E9, 0.0, 2023-09-14 11:03:25.680
235.0, -10.527671638449627, 187500.0, 187500.0, 187500.0, 187500.0, 187500.0, 187500.0, 187500.0, 0.034, -0.026000000000000002, 1.006, 192.0, 1.0, 16.0, 255.0, 48.0, 31.0, 112.0, 0.0, 0.0, 0.0, 1.6946822056806664E9, 0.0, 2023-09-14 11:03:25.680
236.0, -15.646221118714944, 187500.0, 187500.0, 187500.0, 187500.0, 187500.0, 187500.0, 187500.0, 0.034, -0.026000000000000002, 1.006, 192.0, 0.0, 0.0, 0.0, 0.0, 0.0, 0.0, 0.0, 0.0, 0.0, 1.6946822056807127E9, 0.0, 2023-09-14 11:03:25.680
237.0, -33.90759633870081, 187500.0, 187500.0, 187500.0, 187500.0, 187500.0, 187500.0, 187500.0, 0.034, -0.026000000000000002, 1.006, 192.0, 0.0, 0.0, 0.0, 0.0, 0.0, 0.0, 0.0, 0.0, 0.0, 1.6946822056807575E9, 0.0, 2023-09-14 11:03:25.680
238.0, -38.13207604075385, 187500.0, 187500.0, 187500.0, 187500.0, 187500.0, 187500.0, 187500.0, 0.034, -0.026000000000000002, 1.006, 192.0, 0.0, 0.0, 0.0, 0.0, 0.0, 0.0, 0.0, 0.0, 0.0, 1.6946822056808052E9, 0.0, 2023-09-14 11:03:25.680
239.0, -37.95326208511139, 187500.0, 187500.0, 187500.0, 187500.0, 187500.0, 187500.0, 187500.0, 0.034, -0.026000000000000002, 1.006, 192.0, 0.0, 0.0, 0.0, 0.0, 0.0, 0.0, 0.0, 0.0, 0.0, 1.6946822056808887E9, 0.0, 2023-09-14 11:03:25.680
240.0, -33.39350621622875, 187500.0, 187500.0, 187500.0, 187500.0, 187500.0, 187500.0, 187500.0, 0.034, -0.026000000000000002, 1.006, 192.0, 0.0, 0.0, 0.0, 0.0, 0.0, 0.0, 0.0, 0.0, 0.0, 1.694682205680924E9, 0.0, 2023-09-14 11:03:25.680
241.0, -14.595689129315511, 187500.0, 187500.0, 187500.0, 187500.0, 187500.0, 187500.0, 187500.0, 0.034, -0.026000000000000002, 1.006, 192.0, 0.0, 0.0, 0.0, 0.0, 0.0, 0.0, 0.0, 0.0, 0.0, 1.694682206155714E9, 0.0, 2023-09-14 11:03:26.155
242.0, -10.438264660628398, 187500.0, 187500.0, 187500.0, 187500.0, 187500.0, 187500.0, 187500.0, 0.034, -0.026000000000000002, 1.006, 192.0, 0.0, 0.0, 0.0, 0.0, 0.0, 0.0, 0.0, 0.0, 0.0, 1.6946822061558642E9, 0.0, 2023-09-14 11:03:26.155
243.0, -10.438264660628398, 187500.0, 187500.0, 187500.0, 187500.0, 187500.0, 187500.0, 187500.0, 0.034, -0.026000000000000002, 1.006, 192.0, 0.0, 0.0, 0.0, 0.0, 0.0, 0.0, 0.0, 0.0, 0.0, 1.6946822061559503E9, 0.0, 2023-09-14 11:03:26.155
244.0, -15.266241462974724, 187500.0, 187500.0, 187500.0, 187500.0, 187500.0, 187500.0, 187500.0, 0.034, -0.026000000000000002, 1.006, 192.0, 0.0, 0.0, 0.0, 0.0, 0.0, 0.0, 0.0, 0.0, 0.0, 1.6946822061560247E9, 0.0, 2023-09-14 11:03:26.156
245.0, -33.818189360879586, 187500.0, 187500.0, 187500.0, 187500.0, 187500.0, 187500.0, 187500.0, 0.036000000000000004, -0.028, 1.01, 192.0, 1.0, 32.0, 255.0, 32.0, 31.0, 144.0, 0.0, 0.0, 0.0, 1.6946822061560743E9, 0.0, 2023-09-14 11:03:26.156
246.0, -38.26618650748569, 187500.0, 187500.0, 187500.0, 187500.0, 187500.0, 187500.0, 187500.0, 0.036000000000000004, -0.028, 1.01, 192.0, 0.0, 0.0, 0.0, 0.0, 0.0, 0.0, 0.0, 0.0, 0.0, 1.694682206156716E9, 0.0, 2023-09-14 11:03:26.156
247.0, -38.26618650748569, 187500.0, 187500.0, 187500.0, 187500.0, 187500.0, 187500.0, 187500.0, 0.036000000000000004, -0.028, 1.01, 192.0, 0.0, 0.0, 0.0, 0.0, 0.0, 0.0, 0.0, 0.0, 0.0, 1.6946822061567707E9, 0.0, 2023-09-14 11:03:26.156
248.0, -33.32645098286283, 187500.0, 187500.0, 187500.0, 187500.0, 187500.0, 187500.0, 187500.0, 0.036000000000000004, -0.028, 1.01, 192.0, 0.0, 0.0, 0.0, 0.0, 0.0, 0.0, 0.0, 0.0, 0.0, 1.6946822061568592E9, 0.0, 2023-09-14 11:03:26.156
249.0, -15.288593207430031, 187500.0, 187500.0, 187500.0, 187500.0, 187500.0, 187500.0, 187500.0, 0.036000000000000004, -0.028, 1.01, 192.0, 0.0, 0.0, 0.0, 0.0, 0.0, 0.0, 0.0, 0.0, 0.0, 1.6946822061569095E9, 0.0, 2023-09-14 11:03:26.156
250.0, -10.862947805279232, 187500.0, 187500.0, 187500.0, 187500.0, 187500.0, 187500.0, 187500.0, 0.036000000000000004, -0.028, 1.01, 192.0, 0.0, 0.0, 0.0, 0.0, 0.0, 0.0, 0.0, 0.0, 0.0, 1.6946822061569674E9, 0.0, 2023-09-14 11:03:26.156
251.0, -10.460616405083705, 187500.0, 187500.0, 187500.0, 187500.0, 187500.0, 187500.0, 187500.0, 0.036000000000000004, -0.028, 1.01, 192.0, 0.0, 0.0, 0.0, 0.0, 0.0, 0.0, 0.0, 0.0, 0.0, 1.6946822061570244E9, 0.0, 2023-09-14 11:03:26.157
252.0, -15.243889718519418, 187500.0, 187500.0, 187500.0, 187500.0, 187500.0, 187500.0, 187500.0, 0.036000000000000004, -0.028, 1.01, 192.0, 0.0, 0.0, 0.0, 0.0, 0.0, 0.0, 0.0, 0.0, 0.0, 1.6946822061570523E9, 0.0, 2023-09-14 11:03:26.157
253.0, -33.99700331652204, 187500.0, 187500.0, 187500.0, 187500.0, 187500.0, 187500.0, 187500.0, 0.036000000000000004, -0.028, 1.01, 192.0, 0.0, 0.0, 0.0, 0.0, 0.0, 0.0, 0.0, 0.0, 0.0, 1.6946822061570785E9, 0.0, 2023-09-14 11:03:26.157
254.0, -38.6014626743153, 187500.0, 187500.0, 187500.0, 187500.0, 187500.0, 187500.0, 187500.0, 0.036000000000000004, -0.028, 1.01, 192.0, 0.0, 0.0, 0.0, 0.0, 0.0, 0.0, 0.0, 0.0, 0.0, 1.6946822061571045E9, 0.0, 2023-09-14 11:03:26.157
255.0, -38.35559348530692, 187500.0, 187500.0, 187500.0, 187500.0, 187500.0, 187500.0, 187500.0, 0.036000000000000004, -0.026000000000000002, 1.01, 192.0, 1.0, 32.0, 255.0, 48.0, 31.0, 144.0, 0.0, 0.0, 0.0, 1.6946822061571305E9, 0.0, 2023-09-14 11:03:26.157
0.0, -33.34880272731814, 187500.0, 187500.0, 187500.0, 187500.0, 187500.0, 187500.0, 187500.0, 0.036000000000000004, -0.026000000000000002, 1.01, 192.0, 0.0, 0.0, 0.0, 0.0, 0.0, 0.0, 0.0, 0.0, 0.0, 1.694682206157158E9, 0.0, 2023-09-14 11:03:26.157
1.0, -14.99802052951104, 187500.0, 187500.0, 187500.0, 187500.0, 187500.0, 187500.0, 187500.0, 0.036000000000000004, -0.026000000000000002, 1.01, 192.0, 0.0, 0.0, 0.0, 0.0, 0.0, 0.0, 0.0, 0.0, 0.0, 1.6946822061571834E9, 0.0, 2023-09-14 11:03:26.157
2.0, -10.706485594092083, 187500.0, 187500.0, 187500.0, 187500.0, 187500.0, 187500.0, 187500.0, 0.036000000000000004, -0.026000000000000002, 1.01, 192.0, 0.0, 0.0, 0.0, 0.0, 0.0, 0.0, 0.0, 0.0, 0.0, 1.6946822061572092E9, 0.0, 2023-09-14 11:03:26.157
3.0, -10.862947805279232, 187500.0, 187500.0, 187500.0, 187500.0, 187500.0, 187500.0, 187500.0, 0.036000000000000004, -0.026000000000000002, 1.01, 192.0, 0.0, 0.0, 0.0, 0.0, 0.0, 0.0, 0.0, 0.0, 0.0, 1.694682206157235E9, 0.0, 2023-09-14 11:03:26.157
4.0, -15.467407163072487, 187500.0, 187500.0, 187500.0, 187500.0, 187500.0, 187500.0, 187500.0, 0.036000000000000004, -0.026000000000000002, 1.01, 192.0, 0.0, 0.0, 0.0, 0.0, 0.0, 0.0, 0.0, 0.0, 0.0, 1.6946822061572602E9, 0.0, 2023-09-14 11:03:26.157
5.0, -33.99700331652204, 187500.0, 187500.0, 187500.0, 187500.0, 187500.0, 187500.0, 187500.0, 0.036000000000000004, -0.026000000000000002, 1.01, 192.0, 0.0, 0.0, 0.0, 0.0, 0.0, 0.0, 0.0, 0.0, 0.0, 1.6946822061573465E9, 0.0, 2023-09-14 11:03:26.157
6.0, -38.243834763030385, 187500.0, 187500.0, 187500.0, 187500.0, 187500.0, 187500.0, 187500.0, 0.036000000000000004, -0.026000000000000002, 1.01, 192.0, 0.0, 0.0, 0.0, 0.0, 0.0, 0.0, 0.0, 0.0, 0.0, 1.694682206157373E9, 0.0, 2023-09-14 11:03:26.157
7.0, -38.310889996396305, 187500.0, 187500.0, 187500.0, 187500.0, 187500.0, 187500.0, 187500.0, 0.036000000000000004, -0.026000000000000002, 1.01, 192.0, 0.0, 0.0, 0.0, 0.0, 0.0, 0.0, 0.0, 0.0, 0.0, 1.6946822061574008E9, 0.0, 2023-09-14 11:03:26.157
8.0, -33.46056144959467, 187500.0, 187500.0, 187500.0, 187500.0, 187500.0, 187500.0, 187500.0, 0.036000000000000004, -0.026000000000000002, 1.01, 192.0, 0.0, 0.0, 0.0, 0.0, 0.0, 0.0, 0.0, 0.0, 0.0, 1.6946822061574476E9, 0.0, 2023-09-14 11:03:26.157
9.0, -14.841558318323889, 187500.0, 187500.0, 187500.0, 187500.0, 187500.0, 187500.0, 187500.0, 0.032, -0.022, 1.01, 192.0, 1.0, 0.0, 255.0, 80.0, 31.0, 144.0, 0.0, 0.0, 0.0, 1.694682206157515E9, 0.0, 2023-09-14 11:03:26.157
10.0, -10.34885768280717, 187500.0, 187500.0, 187500.0, 187500.0, 187500.0, 187500.0, 187500.0, 0.032, -0.022, 1.01, 192.0, 0.0, 0.0, 0.0, 0.0, 0.0, 0.0, 0.0, 0.0, 0.0, 1.694682206157562E9, 0.0, 2023-09-14 11:03:26.157
11.0, -10.326505938351863, 187500.0, 187500.0, 187500.0, 187500.0, 187500.0, 187500.0, 187500.0, 0.032, -0.022, 1.01, 192.0, 0.0, 0.0, 0.0, 0.0, 0.0, 0.0, 0.0, 0.0, 0.0, 1.6946822061575897E9, 0.0, 2023-09-14 11:03:26.157
12.0, -15.310944951885338, 187500.0, 187500.0, 187500.0, 187500.0, 187500.0, 187500.0, 187500.0, 0.032, -0.022, 1.01, 192.0, 0.0, 0.0, 0.0, 0.0, 0.0, 0.0, 0.0, 0.0, 0.0, 1.6946822061576152E9, 0.0, 2023-09-14 11:03:26.157
13.0, -34.220520761075115, 187500.0, 187500.0, 187500.0, 187500.0, 187500.0, 187500.0, 187500.0, 0.032, -0.022, 1.01, 192.0, 0.0, 0.0, 0.0, 0.0, 0.0, 0.0, 0.0, 0.0, 0.0, 1.6946822061576407E9, 0.0, 2023-09-14 11:03:26.157
14.0, -38.35559348530692, 187500.0, 187500.0, 187500.0, 187500.0, 187500.0, 187500.0, 187500.0, 0.032, -0.022, 1.01, 192.0, 0.0, 0.0, 0.0, 0.0, 0.0, 0.0, 0.0, 0.0, 0.0, 1.6946822061576667E9, 0.0, 2023-09-14 11:03:26.157
15.0, -38.02031731847731, 187500.0, 187500.0, 187500.0, 187500.0, 187500.0, 187500.0, 187500.0, 0.032, -0.022, 1.01, 192.0, 0.0, 0.0, 0.0, 0.0, 0.0, 0.0, 0.0, 0.0, 0.0, 1.6946822061576924E9, 0.0, 2023-09-14 11:03:26.157
16.0, -33.12528528276507, 187500.0, 187500.0, 187500.0, 187500.0, 187500.0, 187500.0, 187500.0, 0.032, -0.022, 1.01, 192.0, 0.0, 0.0, 0.0, 0.0, 0.0, 0.0, 0.0, 0.0, 0.0, 1.694682206157718E9, 0.0, 2023-09-14 11:03:26.157
17.0, -14.707447851592047, 187500.0, 187500.0, 187500.0, 187500.0, 187500.0, 187500.0, 187500.0, 0.032, -0.022, 1.01, 192.0, 0.0, 0.0, 0.0, 0.0, 0.0, 0.0, 0.0, 0.0, 0.0, 1.6946822061577432E9, 0.0, 2023-09-14 11:03:26.157
18.0, -10.371209427262476, 187500.0, 187500.0, 187500.0, 187500.0, 187500.0, 187500.0, 187500.0, 0.032, -0.022, 1.01, 192.0, 0.0, 0.0, 0.0, 0.0, 0.0, 0.0, 0.0, 0.0, 0.0, 1.6946822061577687E9, 0.0, 2023-09-14 11:03:26.157
19.0, -10.88529954973454, 187500.0, 187500.0, 187500.0, 187500.0, 187500.0, 187500.0, 187500.0, 0.036000000000000004, -0.026000000000000002, 1.006, 192.0, 1.0, 32.0, 255.0, 48.0, 31.0, 112.0, 0.0, 0.0, 0.0, 1.6946822061577945E9, 0.0, 2023-09-14 11:03:26.157
20.0, -15.690924607625558, 187500.0, 187500.0, 187500.0, 187500.0, 187500.0, 187500.0, 187500.0, 0.036000000000000004, -0.026000000000000002, 1.006, 192.0, 0.0, 0.0, 0.0, 0.0, 0.0, 0.0, 0.0, 0.0, 0.0, 1.6946822061578212E9, 0.0, 2023-09-14 11:03:26.157
21.0, -33.95229982761143, 187500.0, 187500.0, 187500.0, 187500.0, 187500.0, 187500.0, 187500.0, 0.036000000000000004, -0.026000000000000002, 1.006, 192.0, 0.0, 0.0, 0.0, 0.0, 0.0, 0.0, 0.0, 0.0, 0.0, 1.6946822061578944E9, 0.0, 2023-09-14 11:03:26.157
22.0, -37.90855859620078, 187500.0, 187500.0, 187500.0, 187500.0, 187500.0, 187500.0, 187500.0, 0.036000000000000004, -0.026000000000000002, 1.006, 192.0, 0.0, 0.0, 0.0, 0.0, 0.0, 0.0, 0.0, 0.0, 0.0, 1.6946822061579208E9, 0.0, 2023-09-14 11:03:26.157
23.0, -37.90855859620078, 187500.0, 187500.0, 187500.0, 187500.0, 187500.0, 187500.0, 187500.0, 0.036000000000000004, -0.026000000000000002, 1.006, 192.0, 0.0, 0.0, 0.0, 0.0, 0.0, 0.0, 0.0, 0.0, 0.0, 1.694682206157946E9, 0.0, 2023-09-14 11:03:26.157
24.0, -33.10293353830976, 187500.0, 187500.0, 187500.0, 187500.0, 187500.0, 187500.0, 187500.0, 0.036000000000000004, -0.026000000000000002, 1.006, 192.0, 0.0, 0.0, 0.0, 0.0, 0.0, 0.0, 0.0, 0.0, 0.0, 1.6946822061579716E9, 0.0, 2023-09-14 11:03:26.157
25.0, -14.774503084957969, 187500.0, 187500.0, 187500.0, 187500.0, 187500.0, 187500.0, 187500.0, 0.036000000000000004, -0.026000000000000002, 1.006, 192.0, 0.0, 0.0, 0.0, 0.0, 0.0, 0.0, 0.0, 0.0, 0.0, 1.6946822061579971E9, 0.0, 2023-09-14 11:03:26.157
26.0, -10.371209427262476, 187500.0, 187500.0, 187500.0, 187500.0, 187500.0, 187500.0, 187500.0, 0.036000000000000004, -0.026000000000000002, 1.006, 192.0, 0.0, 0.0, 0.0, 0.0, 0.0, 0.0, 0.0, 0.0, 0.0, 1.6946822061580226E9, 0.0, 2023-09-14 11:03:26.158
27.0, -10.438264660628398, 187500.0, 187500.0, 187500.0, 187500.0, 187500.0, 187500.0, 187500.0, 0.036000000000000004, -0.026000000000000002, 1.006, 192.0, 0.0, 0.0, 0.0, 0.0, 0.0, 0.0, 0.0, 0.0, 0.0, 1.6946822061580484E9, 0.0, 2023-09-14 11:03:26.158
28.0, -15.400351929706567, 187500.0, 187500.0, 187500.0, 187500.0, 187500.0, 187500.0, 187500.0, 0.036000000000000004, -0.026000000000000002, 1.006, 192.0, 0.0, 0.0, 0.0, 0.0, 0.0, 0.0, 0.0, 0.0, 0.0, 1.694682206158074E9, 0.0, 2023-09-14 11:03:26.158
29.0, -33.92994808315612, 187500.0, 187500.0, 187500.0, 187500.0, 187500.0, 187500.0, 187500.0, 0.03, -0.024, 1.006, 192.0, 0.0, 240.0, 255.0, 64.0, 31.0, 112.0, 0.0, 0.0, 0.0, 1.6946822061580994E9, 0.0, 2023-09-14 11:03:26.158
30.0, -38.15442778520916, 187500.0, 187500.0, 187500.0, 187500.0, 187500.0, 187500.0, 187500.0, 0.03, -0.024, 1.006, 192.0, 0.0, 0.0, 0.0, 0.0, 0.0, 0.0, 0.0, 0.0, 0.0, 1.6946822061581268E9, 0.0, 2023-09-14 11:03:26.158
31.0, -37.86385510729016, 187500.0, 187500.0, 187500.0, 187500.0, 187500.0, 187500.0, 187500.0, 0.03, -0.024, 1.006, 192.0, 0.0, 0.0, 0.0, 0.0, 0.0, 0.0, 0.0, 0.0, 0.0, 1.6946822061581523E9, 0.0, 2023-09-14 11:03:26.158
32.0, -33.371154471773444, 187500.0, 187500.0, 187500.0, 187500.0, 187500.0, 187500.0, 187500.0, 0.03, -0.024, 1.006, 192.0, 0.0, 0.0, 0.0, 0.0, 0.0, 0.0, 0.0, 0.0, 0.0, 1.694682206158178E9, 0.0, 2023-09-14 11:03:26.158
33.0, -15.176834485153496, 187500.0, 187500.0, 187500.0, 187500.0, 187500.0, 187500.0, 187500.0, 0.03, -0.024, 1.006, 192.0, 0.0, 0.0, 0.0, 0.0, 0.0, 0.0, 0.0, 0.0, 0.0, 1.6946822061582038E9, 0.0, 2023-09-14 11:03:26.158
34.0, -10.907651294189847, 187500.0, 187500.0, 187500.0, 187500.0, 187500.0, 187500.0, 187500.0, 0.03, -0.024, 1.006, 192.0, 0.0, 0.0, 0.0, 0.0, 0.0, 0.0, 0.0, 0.0, 0.0, 1.6946822061582296E9, 0.0, 2023-09-14 11:03:26.158
35.0, -10.527671638449627, 187500.0, 187500.0, 187500.0, 187500.0, 187500.0, 187500.0, 187500.0, 0.03, -0.024, 1.006, 192.0, 0.0, 0.0, 0.0, 0.0, 0.0, 0.0, 0.0, 0.0, 0.0, 1.694682206158255E9, 0.0, 2023-09-14 11:03:26.158
36.0, -15.467407163072487, 187500.0, 187500.0, 187500.0, 187500.0, 187500.0, 187500.0, 187500.0, 0.03, -0.024, 1.006, 192.0, 0.0, 0.0, 0.0, 0.0, 0.0, 0.0, 0.0, 0.0, 0.0, 1.6946822061583142E9, 0.0, 2023-09-14 11:03:26.158
37.0, -33.885244594245506, 187500.0, 187500.0, 187500.0, 187500.0, 187500.0, 187500.0, 187500.0, 0.03, -0.024, 1.006, 192.0, 0.0, 0.0, 0.0, 0.0, 0.0, 0.0, 0.0, 0.0, 0.0, 1.6946822061583407E9, 0.0, 2023-09-14 11:03:26.158
38.0, -38.33324174085161, 187500.0, 187500.0, 187500.0, 187500.0, 187500.0, 187500.0, 187500.0, 0.03, -0.024, 1.006, 192.0, 0.0, 0.0, 0.0, 0.0, 0.0, 0.0, 0.0, 0.0, 0.0, 1.6946822061583664E9, 0.0, 2023-09-14 11:03:26.158
39.0, -38.310889996396305, 187500.0, 187500.0, 187500.0, 187500.0, 187500.0, 187500.0, 187500.0, 0.03, -0.022, 1.006, 192.0, 0.0, 240.0, 255.0, 80.0, 31.0, 112.0, 0.0, 0.0, 0.0, 1.6946822061583924E9, 0.0, 2023-09-14 11:03:26.158
40.0, -33.16998877167568, 187500.0, 187500.0, 187500.0, 187500.0, 187500.0, 187500.0, 187500.0, 0.03, -0.022, 1.006, 192.0, 0.0, 0.0, 0.0, 0.0, 0.0, 0.0, 0.0, 0.0, 0.0, 1.6946822061584196E9, 0.0, 2023-09-14 11:03:26.158
41.0, -14.573337384860205, 187500.0, 187500.0, 187500.0, 187500.0, 187500.0, 187500.0, 187500.0, 0.03, -0.022, 1.006, 192.0, 0.0, 0.0, 0.0, 0.0, 0.0, 0.0, 0.0, 0.0, 0.0, 1.6946822061584454E9, 0.0, 2023-09-14 11:03:26.158
42.0, -10.28180244944125, 187500.0, 187500.0, 187500.0, 187500.0, 187500.0, 187500.0, 187500.0, 0.03, -0.022, 1.006, 192.0, 0.0, 0.0, 0.0, 0.0, 0.0, 0.0, 0.0, 0.0, 0.0, 1.6946822061585045E9, 0.0, 2023-09-14 11:03:26.158
43.0, -10.72883733854739, 187500.0, 187500.0, 187500.0, 187500.0, 187500.0, 187500.0, 187500.0, 0.03, -0.022, 1.006, 192.0, 0.0, 0.0, 0.0, 0.0, 0.0, 0.0, 0.0, 0.0, 0.0, 1.6946822061585503E9, 0.0, 2023-09-14 11:03:26.158
44.0, -15.556814140893716, 187500.0, 187500.0, 187500.0, 187500.0, 187500.0, 187500.0, 187500.0, 0.03, -0.022, 1.006, 192.0, 0.0, 0.0, 0.0, 0.0, 0.0, 0.0, 0.0, 0.0, 0.0, 1.694682206158596E9, 0.0, 2023-09-14 11:03:26.158
45.0, -33.99700331652204, 187500.0, 187500.0, 187500.0, 187500.0, 187500.0, 187500.0, 187500.0, 0.03, -0.022, 1.006, 192.0, 0.0, 0.0, 0.0, 0.0, 0.0, 0.0, 0.0, 0.0, 0.0, 1.694682206158641E9, 0.0, 2023-09-14 11:03:26.158
46.0, -38.13207604075385, 187500.0, 187500.0, 187500.0, 187500.0, 187500.0, 187500.0, 187500.0, 0.03, -0.022, 1.006, 192.0, 0.0, 0.0, 0.0, 0.0, 0.0, 0.0, 0.0, 0.0, 0.0, 1.6946822061586862E9, 0.0, 2023-09-14 11:03:26.158
47.0, -38.646166163225914, 187500.0, 187500.0, 187500.0, 187500.0, 187500.0, 187500.0, 187500.0, 0.03, -0.022, 1.006, 192.0, 0.0, 0.0, 0.0, 0.0, 0.0, 0.0, 0.0, 0.0, 0.0, 1.6946822061587584E9, 0.0, 2023-09-14 11:03:26.158
48.0, -33.751134127513666, 187500.0, 187500.0, 187500.0, 187500.0, 187500.0, 187500.0, 187500.0, 0.03, -0.022, 1.006, 192.0, 0.0, 0.0, 0.0, 0.0, 0.0, 0.0, 0.0, 0.0, 0.0, 1.6946822061588187E9, 0.0, 2023-09-14 11:03:26.158
49.0, -15.355648440795951, 187500.0, 187500.0, 187500.0, 187500.0, 187500.0, 187500.0, 187500.0, 0.03, -0.024, 1.008, 192.0, 0.0, 240.0, 255.0, 64.0, 31.0, 128.0, 0.0, 0.0, 0.0, 1.6946822061588657E9, 0.0, 2023-09-14 11:03:26.158
50.0, -10.773540827458005, 187500.0, 187500.0, 187500.0, 187500.0, 187500.0, 187500.0, 187500.0, 0.03, -0.024, 1.008, 192.0, 0.0, 0.0, 0.0, 0.0, 0.0, 0.0, 0.0, 0.0, 0.0, 1.6946822061589131E9, 0.0, 2023-09-14 11:03:26.158
51.0, -10.773540827458005, 187500.0, 187500.0, 187500.0, 187500.0, 187500.0, 187500.0, 187500.0, 0.03, -0.024, 1.008, 192.0, 0.0, 0.0, 0.0, 0.0, 0.0, 0.0, 0.0, 0.0, 0.0, 1.6946822061590145E9, 0.0, 2023-09-14 11:03:26.159
52.0, -15.44505541861718, 187500.0, 187500.0, 187500.0, 187500.0, 187500.0, 187500.0, 187500.0, 0.03, -0.024, 1.008, 192.0, 0.0, 0.0, 0.0, 0.0, 0.0, 0.0, 0.0, 0.0, 0.0, 1.6946822061590607E9, 0.0, 2023-09-14 11:03:26.159
53.0, -33.885244594245506, 187500.0, 187500.0, 187500.0, 187500.0, 187500.0, 187500.0, 187500.0, 0.03, -0.024, 1.008, 192.0, 0.0, 0.0, 0.0, 0.0, 0.0, 0.0, 0.0, 0.0, 0.0, 1.6946822061591065E9, 0.0, 2023-09-14 11:03:26.159
54.0, -37.90855859620078, 187500.0, 187500.0, 187500.0, 187500.0, 187500.0, 187500.0, 187500.0, 0.03, -0.024, 1.008, 192.0, 0.0, 0.0, 0.0, 0.0, 0.0, 0.0, 0.0, 0.0, 0.0, 1.694682206159152E9, 0.0, 2023-09-14 11:03:26.159
55.0, -37.95326208511139, 187500.0, 187500.0, 187500.0, 187500.0, 187500.0, 187500.0, 187500.0, 0.03, -0.024, 1.008, 192.0, 0.0, 0.0, 0.0, 0.0, 0.0, 0.0, 0.0, 0.0, 0.0, 1.6946822061591978E9, 0.0, 2023-09-14 11:03:26.159
56.0, -33.035878304943836, 187500.0, 187500.0, 187500.0, 187500.0, 187500.0, 187500.0, 187500.0, 0.03, -0.024, 1.008, 192.0, 0.0, 0.0, 0.0, 0.0, 0.0, 0.0, 0.0, 0.0, 0.0, 1.694682206159243E9, 0.0, 2023-09-14 11:03:26.159
57.0, -15.087427507332267, 187500.0, 187500.0, 187500.0, 187500.0, 187500.0, 187500.0, 187500.0, 0.03, -0.024, 1.008, 192.0, 0.0, 0.0, 0.0, 0.0, 0.0, 0.0, 0.0, 0.0, 0.0, 1.6946822061592875E9, 0.0, 2023-09-14 11:03:26.159
58.0, -10.57237512736024, 187500.0, 187500.0, 187500.0, 187500.0, 187500.0, 187500.0, 187500.0, 0.03, -0.024, 1.008, 192.0, 0.0, 0.0, 0.0, 0.0, 0.0, 0.0, 0.0, 0.0, 0.0, 1.6946822061593304E9, 0.0, 2023-09-14 11:03:26.159
59.0, -10.66178210518147, 187500.0, 187500.0, 187500.0, 187500.0, 187500.0, 187500.0, 187500.0, 0.032, -0.022, 1.006, 192.0, 1.0, 0.0, 255.0, 80.0, 31.0, 112.0, 0.0, 0.0, 0.0, 1.6946822061593752E9, 0.0, 2023-09-14 11:03:26.159
60.0, -15.44505541861718, 187500.0, 187500.0, 187500.0, 187500.0, 187500.0, 187500.0, 187500.0, 0.032, -0.022, 1.006, 192.0, 0.0, 0.0, 0.0, 0.0, 0.0, 0.0, 0.0, 0.0, 0.0, 1.6946822061594243E9, 0.0, 2023-09-14 11:03:26.159
61.0, -33.885244594245506, 187500.0, 187500.0, 187500.0, 187500.0, 187500.0, 187500.0, 187500.0, 0.032, -0.022, 1.006, 192.0, 0.0, 0.0, 0.0, 0.0, 0.0, 0.0, 0.0, 0.0, 0.0, 1.6946822061594772E9, 0.0, 2023-09-14 11:03:26.159
62.0, -38.19913127411977, 187500.0, 187500.0, 187500.0, 187500.0, 187500.0, 187500.0, 187500.0, 0.032, -0.022, 1.006, 192.0, 0.0, 0.0, 0.0, 0.0, 0.0, 0.0, 0.0, 0.0, 0.0, 1.6946822061595252E9, 0.0, 2023-09-14 11:03:26.159
63.0, -38.40029697421753, 187500.0, 187500.0, 187500.0, 187500.0, 187500.0, 187500.0, 187500.0, 0.032, -0.022, 1.006, 192.0, 0.0, 0.0, 0.0, 0.0, 0.0, 0.0, 0.0, 0.0, 0.0, 1.6946822061595714E9, 0.0, 2023-09-14 11:03:26.159
64.0, -33.505264938505285, 187500.0, 187500.0, 187500.0, 187500.0, 187500.0, 187500.0, 187500.0, 0.032, -0.022, 1.006, 192.0, 0.0, 0.0, 0.0, 0.0, 0.0, 0.0, 0.0, 0.0, 0.0, 1.6946822061596112E9, 0.0, 2023-09-14 11:03:26.159
65.0, -15.087427507332267, 187500.0, 187500.0, 187500.0, 187500.0, 187500.0, 187500.0, 187500.0, 0.032, -0.022, 1.006, 192.0, 0.0, 0.0, 0.0, 0.0, 0.0, 0.0, 0.0, 0.0, 0.0, 1.6946822061596563E9, 0.0, 2023-09-14 11:03:26.159
66.0, -10.438264660628398, 187500.0, 187500.0, 187500.0, 187500.0, 187500.0, 187500.0, 187500.0, 0.032, -0.022, 1.006, 192.0, 0.0, 0.0, 0.0, 0.0, 0.0, 0.0, 0.0, 0.0, 0.0, 1.6946822061596956E9, 0.0, 2023-09-14 11:03:26.159
67.0, -10.147691982709407, 187500.0, 187500.0, 187500.0, 187500.0, 187500.0, 187500.0, 187500.0, 0.032, -0.022, 1.006, 192.0, 0.0, 0.0, 0.0, 0.0, 0.0, 0.0, 0.0, 0.0, 0.0, 1.6946822061597943E9, 0.0, 2023-09-14 11:03:26.159
68.0, -15.467407163072487, 187500.0, 187500.0, 187500.0, 187500.0, 187500.0, 187500.0, 187500.0, 0.032, -0.022, 1.006, 192.0, 0.0, 0.0, 0.0, 0.0, 0.0, 0.0, 0.0, 0.0, 0.0, 1.6946822061598392E9, 0.0, 2023-09-14 11:03:26.159
69.0, -34.153465527709194, 187500.0, 187500.0, 187500.0, 187500.0, 187500.0, 187500.0, 187500.0, 0.026000000000000002, -0.024, 1.002, 192.0, 0.0, 208.0, 255.0, 64.0, 31.0, 80.0, 0.0, 0.0, 0.0, 1.6946822061598835E9, 0.0, 2023-09-14 11:03:26.159
70.0, -37.86385510729016, 187500.0, 187500.0, 187500.0, 187500.0, 187500.0, 187500.0, 187500.0, 0.026000000000000002, -0.024, 1.002, 192.0, 0.0, 0.0, 0.0, 0.0, 0.0, 0.0, 0.0, 0.0, 0.0, 1.6946822061599283E9, 0.0, 2023-09-14 11:03:26.159
71.0, -37.9756138295667, 187500.0, 187500.0, 187500.0, 187500.0, 187500.0, 187500.0, 187500.0, 0.026000000000000002, -0.024, 1.002, 192.0, 0.0, 0.0, 0.0, 0.0, 0.0, 0.0, 0.0, 0.0, 0.0, 1.6946822061599731E9, 0.0, 2023-09-14 11:03:26.159
72.0, -33.505264938505285, 187500.0, 187500.0, 187500.0, 187500.0, 187500.0, 187500.0, 187500.0, 0.026000000000000002, -0.024, 1.002, 192.0, 0.0, 0.0, 0.0, 0.0, 0.0, 0.0, 0.0, 0.0, 0.0, 1.694682206160018E9, 0.0, 2023-09-14 11:03:26.160
73.0, -15.176834485153496, 187500.0, 187500.0, 187500.0, 187500.0, 187500.0, 187500.0, 187500.0, 0.026000000000000002, -0.024, 1.002, 192.0, 0.0, 0.0, 0.0, 0.0, 0.0, 0.0, 0.0, 0.0, 0.0, 1.6946822061600628E9, 0.0, 2023-09-14 11:03:26.160
74.0, -10.66178210518147, 187500.0, 187500.0, 187500.0, 187500.0, 187500.0, 187500.0, 187500.0, 0.026000000000000002, -0.024, 1.002, 192.0, 0.0, 0.0, 0.0, 0.0, 0.0, 0.0, 0.0, 0.0, 0.0, 1.6946822061601076E9, 0.0, 2023-09-14 11:03:26.160
75.0, -10.550023382904934, 187500.0, 187500.0, 187500.0, 187500.0, 187500.0, 187500.0, 187500.0, 0.026000000000000002, -0.024, 1.002, 192.0, 0.0, 0.0, 0.0, 0.0, 0.0, 0.0, 0.0, 0.0, 0.0, 1.6946822061601522E9, 0.0, 2023-09-14 11:03:26.160
76.0, -15.780331585446786, 187500.0, 187500.0, 187500.0, 187500.0, 187500.0, 187500.0, 187500.0, 0.026000000000000002, -0.024, 1.002, 192.0, 0.0, 0.0, 0.0, 0.0, 0.0, 0.0, 0.0, 0.0, 0.0, 1.6946822061601958E9, 0.0, 2023-09-14 11:03:26.160
77.0, -33.99700331652204, 187500.0, 187500.0, 187500.0, 187500.0, 187500.0, 187500.0, 187500.0, 0.026000000000000002, -0.024, 1.002, 192.0, 0.0, 0.0, 0.0, 0.0, 0.0, 0.0, 0.0, 0.0, 0.0, 1.6946822061602416E9, 0.0, 2023-09-14 11:03:26.160
78.0, -38.46735220758345, 187500.0, 187500.0, 187500.0, 187500.0, 187500.0, 187500.0, 187500.0, 0.026000000000000002, -0.024, 1.002, 192.0, 0.0, 0.0, 0.0, 0.0, 0.0, 0.0, 0.0, 0.0, 0.0, 1.6946822061602912E9, 0.0, 2023-09-14 11:03:26.160
79.0, -38.19913127411977, 187500.0, 187500.0, 187500.0, 187500.0, 187500.0, 187500.0, 187500.0, 0.028, -0.022, 1.004, 192.0, 0.0, 224.0, 255.0, 80.0, 31.0, 96.0, 0.0, 0.0, 0.0, 1.6946822061603336E9, 0.0, 2023-09-14 11:03:26.160
80.0, -33.617023660781825, 187500.0, 187500.0, 187500.0, 187500.0, 187500.0, 187500.0, 187500.0, 0.028, -0.022, 1.004, 192.0, 0.0, 0.0, 0.0, 0.0, 0.0, 0.0, 0.0, 0.0, 0.0, 1.6946822061603782E9, 0.0, 2023-09-14 11:03:26.160
81.0, -14.841558318323889, 187500.0, 187500.0, 187500.0, 187500.0, 187500.0, 187500.0, 187500.0, 0.028, -0.022, 1.004, 192.0, 0.0, 0.0, 0.0, 0.0, 0.0, 0.0, 0.0, 0.0, 0.0, 1.6946822061604412E9, 0.0, 2023-09-14 11:03:26.160
82.0, -10.66178210518147, 187500.0, 187500.0, 187500.0, 187500.0, 187500.0, 187500.0, 187500.0, 0.028, -0.022, 1.004, 192.0, 0.0, 0.0, 0.0, 0.0, 0.0, 0.0, 0.0, 0.0, 0.0, 1.694682206160564E9, 0.0, 2023-09-14 11:03:26.160
83.0, -11.10881699428761, 187500.0, 187500.0, 187500.0, 187500.0, 187500.0, 187500.0, 187500.0, 0.028, -0.022, 1.004, 192.0, 0.0, 0.0, 0.0, 0.0, 0.0, 0.0, 0.0, 0.0, 0.0, 1.6946822061606107E9, 0.0, 2023-09-14 11:03:26.160
84.0, -15.37800018525126, 187500.0, 187500.0, 187500.0, 187500.0, 187500.0, 187500.0, 187500.0, 0.028, -0.022, 1.004, 192.0, 0.0, 0.0, 0.0, 0.0, 0.0, 0.0, 0.0, 0.0, 0.0, 1.6946822061606562E9, 0.0, 2023-09-14 11:03:26.160
85.0, -33.95229982761143, 187500.0, 187500.0, 187500.0, 187500.0, 187500.0, 187500.0, 187500.0, 0.028, -0.022, 1.004, 192.0, 0.0, 0.0, 0.0, 0.0, 0.0, 0.0, 0.0, 0.0, 0.0, 1.6946822061607018E9, 0.0, 2023-09-14 11:03:26.160
86.0, -37.88620685174547, 187500.0, 187500.0, 187500.0, 187500.0, 187500.0, 187500.0, 187500.0, 0.028, -0.022, 1.004, 192.0, 0.0, 0.0, 0.0, 0.0, 0.0, 0.0, 0.0, 0.0, 0.0, 1.6946822061607475E9, 0.0, 2023-09-14 11:03:26.160
87.0, -38.243834763030385, 187500.0, 187500.0, 187500.0, 187500.0, 187500.0, 187500.0, 187500.0, 0.028, -0.022, 1.004, 192.0, 0.0, 0.0, 0.0, 0.0, 0.0, 0.0, 0.0, 0.0, 0.0, 1.694682206160793E9, 0.0, 2023-09-14 11:03:26.160
88.0, -33.505264938505285, 187500.0, 187500.0, 187500.0, 187500.0, 187500.0, 187500.0, 187500.0, 0.03, -0.022, 1.0, 192.0, 0.0, 240.0, 255.0, 80.0, 31.0, 64.0, 0.0, 0.0, 0.0, 1.6946822061608384E9, 0.0, 2023-09-14 11:03:26.160
89.0, -14.752151340502662, 187500.0, 187500.0, 187500.0, 187500.0, 187500.0, 187500.0, 187500.0, 0.03, -0.022, 1.0, 192.0, 0.0, 0.0, 0.0, 0.0, 0.0, 0.0, 0.0, 0.0, 0.0, 1.6946822061608863E9, 0.0, 2023-09-14 11:03:26.160
90.0, -10.415912916173092, 187500.0, 187500.0, 187500.0, 187500.0, 187500.0, 187500.0, 187500.0, 0.03, -0.022, 1.0, 192.0, 0.0, 0.0, 0.0, 0.0, 0.0, 0.0, 0.0, 0.0, 0.0, 1.6946822061609309E9, 0.0, 2023-09-14 11:03:26.160
91.0, -10.415912916173092, 187500.0, 187500.0, 187500.0, 187500.0, 187500.0, 187500.0, 187500.0, 0.03, -0.022, 1.0, 192.0, 0.0, 0.0, 0.0, 0.0, 0.0, 0.0, 0.0, 0.0, 0.0, 1.6946822061609757E9, 0.0, 2023-09-14 11:03:26.160
92.0, -15.422703674161873, 187500.0, 187500.0, 187500.0, 187500.0, 187500.0, 187500.0, 187500.0, 0.03, -0.022, 1.0, 192.0, 0.0, 0.0, 0.0, 0.0, 0.0, 0.0, 0.0, 0.0, 0.0, 1.694682206161023E9, 0.0, 2023-09-14 11:03:26.161
93.0, -33.92994808315612, 187500.0, 187500.0, 187500.0, 187500.0, 187500.0, 187500.0, 187500.0, 0.03, -0.022, 1.0, 192.0, 0.0, 0.0, 0.0, 0.0, 0.0, 0.0, 0.0, 0.0, 0.0, 1.694682206161068E9, 0.0, 2023-09-14 11:03:26.161
94.0, -38.243834763030385, 187500.0, 187500.0, 187500.0, 187500.0, 187500.0, 187500.0, 187500.0, 0.03, -0.022, 1.0, 192.0, 0.0, 0.0, 0.0, 0.0, 0.0, 0.0, 0.0, 0.0, 0.0, 1.6946822061611142E9, 0.0, 2023-09-14 11:03:26.161
95.0, -37.9756138295667, 187500.0, 187500.0, 187500.0, 187500.0, 187500.0, 187500.0, 187500.0, 0.03, -0.022, 1.0, 192.0, 0.0, 0.0, 0.0, 0.0, 0.0, 0.0, 0.0, 0.0, 0.0, 1.694682206161163E9, 0.0, 2023-09-14 11:03:26.161
96.0, -33.12528528276507, 187500.0, 187500.0, 187500.0, 187500.0, 187500.0, 187500.0, 187500.0, 0.03, -0.022, 1.0, 192.0, 0.0, 0.0, 0.0, 0.0, 0.0, 0.0, 0.0, 0.0, 0.0, 1.69468220616121E9, 0.0, 2023-09-14 11:03:26.161
97.0, -14.774503084957969, 187500.0, 187500.0, 187500.0, 187500.0, 187500.0, 187500.0, 187500.0, 0.03, -0.022, 1.0, 192.0, 0.0, 0.0, 0.0, 0.0, 0.0, 0.0, 0.0, 0.0, 0.0, 1.6946822061614184E9, 0.0, 2023-09-14 11:03:26.161
98.0, -10.751189083002696, 187500.0, 187500.0, 187500.0, 187500.0, 187500.0, 187500.0, 187500.0, 0.03, -0.024, 1.002, 192.0, 0.0, 240.0, 255.0, 64.0, 31.0, 80.0, 0.0, 0.0, 0.0, 1.6946822061615107E9, 0.0, 2023-09-14 11:03:26.161
99.0, -10.773540827458005, 187500.0, 187500.0, 187500.0, 187500.0, 187500.0, 187500.0, 187500.0, 0.03, -0.024, 1.002, 192.0, 0.0, 0.0, 0.0, 0.0, 0.0, 0.0, 0.0, 0.0, 0.0, 1.694682206161558E9, 0.0, 2023-09-14 11:03:26.161
100.0, -15.534462396438409, 187500.0, 187500.0, 187500.0, 187500.0, 187500.0, 187500.0, 187500.0, 0.03, -0.024, 1.002, 192.0, 0.0, 0.0, 0.0, 0.0, 0.0, 0.0, 0.0, 0.0, 0.0, 1.6946822061615977E9, 0.0, 2023-09-14 11:03:26.161
101.0, -33.92994808315612, 187500.0, 187500.0, 187500.0, 187500.0, 187500.0, 187500.0, 187500.0, 0.03, -0.024, 1.002, 192.0, 0.0, 0.0, 0.0, 0.0, 0.0, 0.0, 0.0, 0.0, 0.0, 1.6946822061616433E9, 0.0, 2023-09-14 11:03:26.161
102.0, -37.77444812946894, 187500.0, 187500.0, 187500.0, 187500.0, 187500.0, 187500.0, 187500.0, 0.03, -0.024, 1.002, 192.0, 0.0, 0.0, 0.0, 0.0, 0.0, 0.0, 0.0, 0.0, 0.0, 1.6946822061616933E9, 0.0, 2023-09-14 11:03:26.161
103.0, -38.02031731847731, 187500.0, 187500.0, 187500.0, 187500.0, 187500.0, 187500.0, 187500.0, 0.03, -0.024, 1.002, 192.0, 0.0, 0.0, 0.0, 0.0, 0.0, 0.0, 0.0, 0.0, 0.0, 1.6946822061617374E9, 0.0, 2023-09-14 11:03:26.161
104.0, -33.572320171871205, 187500.0, 187500.0, 187500.0, 187500.0, 187500.0, 187500.0, 187500.0, 0.03, -0.024, 1.002, 192.0, 0.0, 0.0, 0.0, 0.0, 0.0, 0.0, 0.0, 0.0, 0.0, 1.6946822061617804E9, 0.0, 2023-09-14 11:03:26.161
105.0, -14.841558318323889, 187500.0, 187500.0, 187500.0, 187500.0, 187500.0, 187500.0, 187500.0, 0.03, -0.024, 1.002, 192.0, 0.0, 0.0, 0.0, 0.0, 0.0, 0.0, 0.0, 0.0, 0.0, 1.6946822066364772E9, 0.0, 2023-09-14 11:03:26.636
106.0, -10.482968149539012, 187500.0, 187500.0, 187500.0, 187500.0, 187500.0, 187500.0, 187500.0, 0.03, -0.024, 1.002, 192.0, 0.0, 0.0, 0.0, 0.0, 0.0, 0.0, 0.0, 0.0, 0.0, 1.6946822066366632E9, 0.0, 2023-09-14 11:03:26.636
107.0, -10.19239547162002, 187500.0, 187500.0, 187500.0, 187500.0, 187500.0, 187500.0, 187500.0, 0.03, -0.024, 1.002, 192.0, 0.0, 0.0, 0.0, 0.0, 0.0, 0.0, 0.0, 0.0, 0.0, 1.6946822066367157E9, 0.0, 2023-09-14 11:03:26.636
108.0, -15.690924607625558, 187500.0, 187500.0, 187500.0, 187500.0, 187500.0, 187500.0, 187500.0, 0.036000000000000004, -0.02, 1.002, 192.0, 1.0, 32.0, 255.0, 96.0, 31.0, 80.0, 0.0, 0.0, 0.0, 1.6946822066367664E9, 0.0, 2023-09-14 11:03:26.636
109.0, -34.086410294343274, 187500.0, 187500.0, 187500.0, 187500.0, 187500.0, 187500.0, 187500.0, 0.036000000000000004, -0.02, 1.002, 192.0, 0.0, 0.0, 0.0, 0.0, 0.0, 0.0, 0.0, 0.0, 0.0, 1.6946822066368873E9, 0.0, 2023-09-14 11:03:26.636
110.0, -37.997965574022004, 187500.0, 187500.0, 187500.0, 187500.0, 187500.0, 187500.0, 187500.0, 0.036000000000000004, -0.02, 1.002, 192.0, 0.0, 0.0, 0.0, 0.0, 0.0, 0.0, 0.0, 0.0, 0.0, 1.6946822066369388E9, 0.0, 2023-09-14 11:03:26.636
111.0, -38.08737255184324, 187500.0, 187500.0, 187500.0, 187500.0, 187500.0, 187500.0, 187500.0, 0.036000000000000004, -0.02, 1.002, 192.0, 0.0, 0.0, 0.0, 0.0, 0.0, 0.0, 0.0, 0.0, 0.0, 1.694682206637E9, 0.0, 2023-09-14 11:03:26.637
112.0, -33.572320171871205, 187500.0, 187500.0, 187500.0, 187500.0, 187500.0, 187500.0, 187500.0, 0.036000000000000004, -0.02, 1.002, 192.0, 0.0, 0.0, 0.0, 0.0, 0.0, 0.0, 0.0, 0.0, 0.0, 1.6946822066370542E9, 0.0, 2023-09-14 11:03:26.637
113.0, -15.199186229608802, 187500.0, 187500.0, 187500.0, 187500.0, 187500.0, 187500.0, 187500.0, 0.036000000000000004, -0.02, 1.002, 192.0, 0.0, 0.0, 0.0, 0.0, 0.0, 0.0, 0.0, 0.0, 0.0, 1.694682206637186E9, 0.0, 2023-09-14 11:03:26.637
114.0, -10.88529954973454, 187500.0, 187500.0, 187500.0, 187500.0, 187500.0, 187500.0, 187500.0, 0.036000000000000004, -0.02, 1.002, 192.0, 0.0, 0.0, 0.0, 0.0, 0.0, 0.0, 0.0, 0.0, 0.0, 1.6946822066372387E9, 0.0, 2023-09-14 11:03:26.637
115.0, -10.460616405083705, 187500.0, 187500.0, 187500.0, 187500.0, 187500.0, 187500.0, 187500.0, 0.036000000000000004, -0.02, 1.002, 192.0, 0.0, 0.0, 0.0, 0.0, 0.0, 0.0, 0.0, 0.0, 0.0, 1.6946822066372852E9, 0.0, 2023-09-14 11:03:26.637
116.0, -15.266241462974724, 187500.0, 187500.0, 187500.0, 187500.0, 187500.0, 187500.0, 187500.0, 0.036000000000000004, -0.02, 1.002, 192.0, 0.0, 0.0, 0.0, 0.0, 0.0, 0.0, 0.0, 0.0, 0.0, 1.6946822066373296E9, 0.0, 2023-09-14 11:03:26.637
117.0, -34.01935506097735, 187500.0, 187500.0, 187500.0, 187500.0, 187500.0, 187500.0, 187500.0, 0.036000000000000004, -0.02, 1.002, 192.0, 0.0, 0.0, 0.0, 0.0, 0.0, 0.0, 0.0, 0.0, 0.0, 1.694682206637376E9, 0.0, 2023-09-14 11:03:26.637
118.0, -38.48970395203876, 187500.0, 187500.0, 187500.0, 187500.0, 187500.0, 187500.0, 187500.0, 0.034, -0.024, 1.002, 192.0, 1.0, 16.0, 255.0, 64.0, 31.0, 80.0, 0.0, 0.0, 0.0, 1.6946822066374233E9, 0.0, 2023-09-14 11:03:26.637
119.0, -38.42264871867284, 187500.0, 187500.0, 187500.0, 187500.0, 187500.0, 187500.0, 187500.0, 0.034, -0.024, 1.002, 192.0, 0.0, 0.0, 0.0, 0.0, 0.0, 0.0, 0.0, 0.0, 0.0, 1.6946822066374755E9, 0.0, 2023-09-14 11:03:26.637
120.0, -33.617023660781825, 187500.0, 187500.0, 187500.0, 187500.0, 187500.0, 187500.0, 187500.0, 0.034, -0.024, 1.002, 192.0, 0.0, 0.0, 0.0, 0.0, 0.0, 0.0, 0.0, 0.0, 0.0, 1.6946822066375191E9, 0.0, 2023-09-14 11:03:26.637
121.0, -15.221537974064109, 187500.0, 187500.0, 187500.0, 187500.0, 187500.0, 187500.0, 187500.0, 0.034, -0.024, 1.002, 192.0, 0.0, 0.0, 0.0, 0.0, 0.0, 0.0, 0.0, 0.0, 0.0, 1.694682206637562E9, 0.0, 2023-09-14 11:03:26.637
122.0, -10.66178210518147, 187500.0, 187500.0, 187500.0, 187500.0, 187500.0, 187500.0, 187500.0, 0.034, -0.024, 1.002, 192.0, 0.0, 0.0, 0.0, 0.0, 0.0, 0.0, 0.0, 0.0, 0.0, 1.6946822066376116E9, 0.0, 2023-09-14 11:03:26.637
123.0, -10.57237512736024, 187500.0, 187500.0, 187500.0, 187500.0, 187500.0, 187500.0, 187500.0, 0.034, -0.024, 1.002, 192.0, 0.0, 0.0, 0.0, 0.0, 0.0, 0.0, 0.0, 0.0, 0.0, 1.6946822066376736E9, 0.0, 2023-09-14 11:03:26.637
124.0, -15.556814140893716, 187500.0, 187500.0, 187500.0, 187500.0, 187500.0, 187500.0, 187500.0, 0.034, -0.024, 1.002, 192.0, 0.0, 0.0, 0.0, 0.0, 0.0, 0.0, 0.0, 0.0, 0.0, 1.6946822066377172E9, 0.0, 2023-09-14 11:03:26.637
125.0, -33.617023660781825, 187500.0, 187500.0, 187500.0, 187500.0, 187500.0, 187500.0, 187500.0, 0.034, -0.024, 1.002, 192.0, 0.0, 0.0, 0.0, 0.0, 0.0, 0.0, 0.0, 0.0, 0.0, 1.6946822066377592E9, 0.0, 2023-09-14 11:03:26.637
126.0, -37.930910340656084, 187500.0, 187500.0, 187500.0, 187500.0, 187500.0, 187500.0, 187500.0, 0.034, -0.024, 1.002, 192.0, 0.0, 0.0, 0.0, 0.0, 0.0, 0.0, 0.0, 0.0, 0.0, 1.6946822066378124E9, 0.0, 2023-09-14 11:03:26.637
127.0, -37.9756138295667, 187500.0, 187500.0, 187500.0, 187500.0, 187500.0, 187500.0, 187500.0, 0.034, -0.024, 1.002, 192.0, 0.0, 0.0, 0.0, 0.0, 0.0, 0.0, 0.0, 0.0, 0.0, 1.69468220663786E9, 0.0, 2023-09-14 11:03:26.637
128.0, -33.39350621622875, 187500.0, 187500.0, 187500.0, 187500.0, 187500.0, 187500.0, 187500.0, 0.038, -0.02, 1.004, 192.0, 1.0, 48.0, 255.0, 96.0, 31.0, 96.0, 0.0, 0.0, 0.0, 1.6946822066379888E9, 0.0, 2023-09-14 11:03:26.637
129.0, -15.109779251787574, 187500.0, 187500.0, 187500.0, 187500.0, 187500.0, 187500.0, 187500.0, 0.038, -0.02, 1.004, 192.0, 0.0, 0.0, 0.0, 0.0, 0.0, 0.0, 0.0, 0.0, 0.0, 1.6946822066380367E9, 0.0, 2023-09-14 11:03:26.638
130.0, -10.57237512736024, 187500.0, 187500.0, 187500.0, 187500.0, 187500.0, 187500.0, 187500.0, 0.038, -0.02, 1.004, 192.0, 0.0, 0.0, 0.0, 0.0, 0.0, 0.0, 0.0, 0.0, 0.0, 1.6946822066380916E9, 0.0, 2023-09-14 11:03:26.638
131.0, -10.57237512736024, 187500.0, 187500.0, 187500.0, 187500.0, 187500.0, 187500.0, 187500.0, 0.038, -0.02, 1.004, 192.0, 0.0, 0.0, 0.0, 0.0, 0.0, 0.0, 0.0, 0.0, 0.0, 1.6946822066381428E9, 0.0, 2023-09-14 11:03:26.638
132.0, -15.623869374259638, 187500.0, 187500.0, 187500.0, 187500.0, 187500.0, 187500.0, 187500.0, 0.038, -0.02, 1.004, 192.0, 0.0, 0.0, 0.0, 0.0, 0.0, 0.0, 0.0, 0.0, 0.0, 1.6946822066381865E9, 0.0, 2023-09-14 11:03:26.638
133.0, -34.30992773889634, 187500.0, 187500.0, 187500.0, 187500.0, 187500.0, 187500.0, 187500.0, 0.038, -0.02, 1.004, 192.0, 0.0, 0.0, 0.0, 0.0, 0.0, 0.0, 0.0, 0.0, 0.0, 1.6946822066382284E9, 0.0, 2023-09-14 11:03:26.638
134.0, -38.13207604075385, 187500.0, 187500.0, 187500.0, 187500.0, 187500.0, 187500.0, 187500.0, 0.038, -0.02, 1.004, 192.0, 0.0, 0.0, 0.0, 0.0, 0.0, 0.0, 0.0, 0.0, 0.0, 1.694682206638271E9, 0.0, 2023-09-14 11:03:26.638
135.0, -38.02031731847731, 187500.0, 187500.0, 187500.0, 187500.0, 187500.0, 187500.0, 187500.0, 0.038, -0.02, 1.004, 192.0, 0.0, 0.0, 0.0, 0.0, 0.0, 0.0, 0.0, 0.0, 0.0, 1.694682206638322E9, 0.0, 2023-09-14 11:03:26.638
136.0, -33.28174749395222, 187500.0, 187500.0, 187500.0, 187500.0, 187500.0, 187500.0, 187500.0, 0.038, -0.02, 1.004, 192.0, 0.0, 0.0, 0.0, 0.0, 0.0, 0.0, 0.0, 0.0, 0.0, 1.6946822066383708E9, 0.0, 2023-09-14 11:03:26.638
137.0, -14.99802052951104, 187500.0, 187500.0, 187500.0, 187500.0, 187500.0, 187500.0, 187500.0, 0.038, -0.02, 1.004, 192.0, 0.0, 0.0, 0.0, 0.0, 0.0, 0.0, 0.0, 0.0, 0.0, 1.6946822066384146E9, 0.0, 2023-09-14 11:03:26.638
138.0, -10.795892571913312, 187500.0, 187500.0, 187500.0, 187500.0, 187500.0, 187500.0, 187500.0, 0.036000000000000004, -0.026000000000000002, 1.004, 192.0, 1.0, 32.0, 255.0, 48.0, 31.0, 96.0, 0.0, 0.0, 0.0, 1.6946822066384592E9, 0.0, 2023-09-14 11:03:26.638
139.0, -10.72883733854739, 187500.0, 187500.0, 187500.0, 187500.0, 187500.0, 187500.0, 187500.0, 0.036000000000000004, -0.026000000000000002, 1.004, 192.0, 0.0, 0.0, 0.0, 0.0, 0.0, 0.0, 0.0, 0.0, 0.0, 1.694682206638508E9, 0.0, 2023-09-14 11:03:26.638
140.0, -15.690924607625558, 187500.0, 187500.0, 187500.0, 187500.0, 187500.0, 187500.0, 187500.0, 0.036000000000000004, -0.026000000000000002, 1.004, 192.0, 0.0, 0.0, 0.0, 0.0, 0.0, 0.0, 0.0, 0.0, 0.0, 1.6946822066385543E9, 0.0, 2023-09-14 11:03:26.638
141.0, -33.92994808315612, 187500.0, 187500.0, 187500.0, 187500.0, 187500.0, 187500.0, 187500.0, 0.036000000000000004, -0.026000000000000002, 1.004, 192.0, 0.0, 0.0, 0.0, 0.0, 0.0, 0.0, 0.0, 0.0, 0.0, 1.6946822066386E9, 0.0, 2023-09-14 11:03:26.638
142.0, -38.35559348530692, 187500.0, 187500.0, 187500.0, 187500.0, 187500.0, 187500.0, 187500.0, 0.036000000000000004, -0.026000000000000002, 1.004, 192.0, 0.0, 0.0, 0.0, 0.0, 0.0, 0.0, 0.0, 0.0, 0.0, 1.6946822066386487E9, 0.0, 2023-09-14 11:03:26.638
143.0, -38.26618650748569, 187500.0, 187500.0, 187500.0, 187500.0, 187500.0, 187500.0, 187500.0, 0.036000000000000004, -0.026000000000000002, 1.004, 192.0, 0.0, 0.0, 0.0, 0.0, 0.0, 0.0, 0.0, 0.0, 0.0, 1.6946822066388612E9, 0.0, 2023-09-14 11:03:26.638
144.0, -33.28174749395222, 187500.0, 187500.0, 187500.0, 187500.0, 187500.0, 187500.0, 187500.0, 0.036000000000000004, -0.026000000000000002, 1.004, 192.0, 0.0, 0.0, 0.0, 0.0, 0.0, 0.0, 0.0, 0.0, 0.0, 1.6946822066389196E9, 0.0, 2023-09-14 11:03:26.638
145.0, -15.109779251787574, 187500.0, 187500.0, 187500.0, 187500.0, 187500.0, 187500.0, 187500.0, 0.036000000000000004, -0.026000000000000002, 1.004, 192.0, 0.0, 0.0, 0.0, 0.0, 0.0, 0.0, 0.0, 0.0, 0.0, 1.6946822066389732E9, 0.0, 2023-09-14 11:03:26.638
146.0, -10.527671638449627, 187500.0, 187500.0, 187500.0, 187500.0, 187500.0, 187500.0, 187500.0, 0.036000000000000004, -0.026000000000000002, 1.004, 192.0, 0.0, 0.0, 0.0, 0.0, 0.0, 0.0, 0.0, 0.0, 0.0, 1.6946822066390235E9, 0.0, 2023-09-14 11:03:26.639
147.0, -10.66178210518147, 187500.0, 187500.0, 187500.0, 187500.0, 187500.0, 187500.0, 187500.0, 0.036000000000000004, -0.026000000000000002, 1.004, 192.0, 0.0, 0.0, 0.0, 0.0, 0.0, 0.0, 0.0, 0.0, 0.0, 1.6946822066390688E9, 0.0, 2023-09-14 11:03:26.639
148.0, -15.959145541089242, 187500.0, 187500.0, 187500.0, 187500.0, 187500.0, 187500.0, 187500.0, 0.034, -0.022, 1.002, 192.0, 1.0, 16.0, 255.0, 80.0, 31.0, 80.0, 0.0, 0.0, 0.0, 1.6946822066391096E9, 0.0, 2023-09-14 11:03:26.639
149.0, -34.01935506097735, 187500.0, 187500.0, 187500.0, 187500.0, 187500.0, 187500.0, 187500.0, 0.034, -0.022, 1.002, 192.0, 0.0, 0.0, 0.0, 0.0, 0.0, 0.0, 0.0, 0.0, 0.0, 1.6946822066391575E9, 0.0, 2023-09-14 11:03:26.639
150.0, -38.15442778520916, 187500.0, 187500.0, 187500.0, 187500.0, 187500.0, 187500.0, 187500.0, 0.034, -0.022, 1.002, 192.0, 0.0, 0.0, 0.0, 0.0, 0.0, 0.0, 0.0, 0.0, 0.0, 1.694682206639204E9, 0.0, 2023-09-14 11:03:26.639
151.0, -38.109724296298545, 187500.0, 187500.0, 187500.0, 187500.0, 187500.0, 187500.0, 187500.0, 0.034, -0.022, 1.002, 192.0, 0.0, 0.0, 0.0, 0.0, 0.0, 0.0, 0.0, 0.0, 0.0, 1.6946822066392484E9, 0.0, 2023-09-14 11:03:26.639
152.0, -33.12528528276507, 187500.0, 187500.0, 187500.0, 187500.0, 187500.0, 187500.0, 187500.0, 0.034, -0.022, 1.002, 192.0, 0.0, 0.0, 0.0, 0.0, 0.0, 0.0, 0.0, 0.0, 0.0, 1.694682206639296E9, 0.0, 2023-09-14 11:03:26.639
153.0, -14.975668785055731, 187500.0, 187500.0, 187500.0, 187500.0, 187500.0, 187500.0, 187500.0, 0.034, -0.022, 1.002, 192.0, 0.0, 0.0, 0.0, 0.0, 0.0, 0.0, 0.0, 0.0, 0.0, 1.694682206639341E9, 0.0, 2023-09-14 11:03:26.639
154.0, -10.684133849636776, 187500.0, 187500.0, 187500.0, 187500.0, 187500.0, 187500.0, 187500.0, 0.034, -0.022, 1.002, 192.0, 0.0, 0.0, 0.0, 0.0, 0.0, 0.0, 0.0, 0.0, 0.0, 1.6946822066393871E9, 0.0, 2023-09-14 11:03:26.639
155.0, -10.706485594092083, 187500.0, 187500.0, 187500.0, 187500.0, 187500.0, 187500.0, 187500.0, 0.034, -0.022, 1.002, 192.0, 0.0, 0.0, 0.0, 0.0, 0.0, 0.0, 0.0, 0.0, 0.0, 1.6946822066394331E9, 0.0, 2023-09-14 11:03:26.639
156.0, -15.288593207430031, 187500.0, 187500.0, 187500.0, 187500.0, 187500.0, 187500.0, 187500.0, 0.034, -0.022, 1.002, 192.0, 0.0, 0.0, 0.0, 0.0, 0.0, 0.0, 0.0, 0.0, 0.0, 1.6946822066394808E9, 0.0, 2023-09-14 11:03:26.639
157.0, -33.818189360879586, 187500.0, 187500.0, 187500.0, 187500.0, 187500.0, 187500.0, 187500.0, 0.034, -0.022, 1.002, 192.0, 0.0, 0.0, 0.0, 0.0, 0.0, 0.0, 0.0, 0.0, 0.0, 1.6946822066395316E9, 0.0, 2023-09-14 11:03:26.639
158.0, -38.42264871867284, 187500.0, 187500.0, 187500.0, 187500.0, 187500.0, 187500.0, 187500.0, 0.038, -0.024, 1.002, 192.0, 1.0, 48.0, 255.0, 64.0, 31.0, 80.0, 0.0, 0.0, 0.0, 1.6946822066395824E9, 0.0, 2023-09-14 11:03:26.639
159.0, -38.377945229762226, 187500.0, 187500.0, 187500.0, 187500.0, 187500.0, 187500.0, 187500.0, 0.038, -0.024, 1.002, 192.0, 0.0, 0.0, 0.0, 0.0, 0.0, 0.0, 0.0, 0.0, 0.0, 1.694682206639766E9, 0.0, 2023-09-14 11:03:26.639
160.0, -33.16998877167568, 187500.0, 187500.0, 187500.0, 187500.0, 187500.0, 187500.0, 187500.0, 0.038, -0.024, 1.002, 192.0, 0.0, 0.0, 0.0, 0.0, 0.0, 0.0, 0.0, 0.0, 0.0, 1.6946822066398232E9, 0.0, 2023-09-14 11:03:26.639
161.0, -15.042724018421653, 187500.0, 187500.0, 187500.0, 187500.0, 187500.0, 187500.0, 187500.0, 0.038, -0.024, 1.002, 192.0, 0.0, 0.0, 0.0, 0.0, 0.0, 0.0, 0.0, 0.0, 0.0, 1.6946822066398633E9, 0.0, 2023-09-14 11:03:26.639
162.0, -10.639430360726163, 187500.0, 187500.0, 187500.0, 187500.0, 187500.0, 187500.0, 187500.0, 0.038, -0.024, 1.002, 192.0, 0.0, 0.0, 0.0, 0.0, 0.0, 0.0, 0.0, 0.0, 0.0, 1.6946822066399052E9, 0.0, 2023-09-14 11:03:26.639
163.0, -10.706485594092083, 187500.0, 187500.0, 187500.0, 187500.0, 187500.0, 187500.0, 187500.0, 0.038, -0.024, 1.002, 192.0, 0.0, 0.0, 0.0, 0.0, 0.0, 0.0, 0.0, 0.0, 0.0, 1.6946822066399531E9, 0.0, 2023-09-14 11:03:26.639
164.0, -15.623869374259638, 187500.0, 187500.0, 187500.0, 187500.0, 187500.0, 187500.0, 187500.0, 0.038, -0.024, 1.002, 192.0, 0.0, 0.0, 0.0, 0.0, 0.0, 0.0, 0.0, 0.0, 0.0, 1.6946822066400023E9, 0.0, 2023-09-14 11:03:26.640
165.0, -33.99700331652204, 187500.0, 187500.0, 187500.0, 187500.0, 187500.0, 187500.0, 187500.0, 0.038, -0.024, 1.002, 192.0, 0.0, 0.0, 0.0, 0.0, 0.0, 0.0, 0.0, 0.0, 0.0, 1.6946822066400633E9, 0.0, 2023-09-14 11:03:26.640
166.0, -38.02031731847731, 187500.0, 187500.0, 187500.0, 187500.0, 187500.0, 187500.0, 187500.0, 0.038, -0.024, 1.002, 192.0, 0.0, 0.0, 0.0, 0.0, 0.0, 0.0, 0.0, 0.0, 0.0, 1.6946822066401215E9, 0.0, 2023-09-14 11:03:26.640
167.0, -37.930910340656084, 187500.0, 187500.0, 187500.0, 187500.0, 187500.0, 187500.0, 187500.0, 0.038, -0.024, 1.002, 192.0, 0.0, 0.0, 0.0, 0.0, 0.0, 0.0, 0.0, 0.0, 0.0, 1.6946822066401806E9, 0.0, 2023-09-14 11:03:26.640
168.0, -33.5499684274159, 187500.0, 187500.0, 187500.0, 187500.0, 187500.0, 187500.0, 187500.0, 0.038, -0.026000000000000002, 1.006, 192.0, 1.0, 48.0, 255.0, 48.0, 31.0, 112.0, 0.0, 0.0, 0.0, 1.6946822066402562E9, 0.0, 2023-09-14 11:03:26.640
169.0, -14.908613551689811, 187500.0, 187500.0, 187500.0, 187500.0, 187500.0, 187500.0, 187500.0, 0.038, -0.026000000000000002, 1.006, 192.0, 0.0, 0.0, 0.0, 0.0, 0.0, 0.0, 0.0, 0.0, 0.0, 1.69468220664032E9, 0.0, 2023-09-14 11:03:26.640
170.0, -10.706485594092083, 187500.0, 187500.0, 187500.0, 187500.0, 187500.0, 187500.0, 187500.0, 0.038, -0.026000000000000002, 1.006, 192.0, 0.0, 0.0, 0.0, 0.0, 0.0, 0.0, 0.0, 0.0, 0.0, 1.694682206640376E9, 0.0, 2023-09-14 11:03:26.640
171.0, -10.550023382904934, 187500.0, 187500.0, 187500.0, 187500.0, 187500.0, 187500.0, 187500.0, 0.038, -0.026000000000000002, 1.006, 192.0, 0.0, 0.0, 0.0, 0.0, 0.0, 0.0, 0.0, 0.0, 0.0, 1.6946822066404316E9, 0.0, 2023-09-14 11:03:26.640
172.0, -15.489758907527795, 187500.0, 187500.0, 187500.0, 187500.0, 187500.0, 187500.0, 187500.0, 0.038, -0.026000000000000002, 1.006, 192.0, 0.0, 0.0, 0.0, 0.0, 0.0, 0.0, 0.0, 0.0, 0.0, 1.6946822066404943E9, 0.0, 2023-09-14 11:03:26.640
173.0, -33.90759633870081, 187500.0, 187500.0, 187500.0, 187500.0, 187500.0, 187500.0, 187500.0, 0.038, -0.026000000000000002, 1.006, 192.0, 0.0, 0.0, 0.0, 0.0, 0.0, 0.0, 0.0, 0.0, 0.0, 1.694682206640545E9, 0.0, 2023-09-14 11:03:26.640
174.0, -38.33324174085161, 187500.0, 187500.0, 187500.0, 187500.0, 187500.0, 187500.0, 187500.0, 0.038, -0.026000000000000002, 1.006, 192.0, 0.0, 0.0, 0.0, 0.0, 0.0, 0.0, 0.0, 0.0, 0.0, 1.6946822066406648E9, 0.0, 2023-09-14 11:03:26.640
175.0, -37.90855859620078, 187500.0, 187500.0, 187500.0, 187500.0, 187500.0, 187500.0, 187500.0, 0.038, -0.026000000000000002, 1.006, 192.0, 0.0, 0.0, 0.0, 0.0, 0.0, 0.0, 0.0, 0.0, 0.0, 1.6946822066407125E9, 0.0, 2023-09-14 11:03:26.640
176.0, -33.46056144959467, 187500.0, 187500.0, 187500.0, 187500.0, 187500.0, 187500.0, 187500.0, 0.038, -0.026000000000000002, 1.006, 192.0, 0.0, 0.0, 0.0, 0.0, 0.0, 0.0, 0.0, 0.0, 0.0, 1.6946822066407645E9, 0.0, 2023-09-14 11:03:26.640
177.0, -14.886261807234504, 187500.0, 187500.0, 187500.0, 187500.0, 187500.0, 187500.0, 187500.0, 0.038, -0.026000000000000002, 1.006, 192.0, 0.0, 0.0, 0.0, 0.0, 0.0, 0.0, 0.0, 0.0, 0.0, 1.6946822066408684E9, 0.0, 2023-09-14 11:03:26.640
178.0, -10.907651294189847, 187500.0, 187500.0, 187500.0, 187500.0, 187500.0, 187500.0, 187500.0, 0.034, -0.026000000000000002, 1.008, 192.0, 1.0, 16.0, 255.0, 48.0, 31.0, 128.0, 0.0, 0.0, 0.0, 1.694682206640916E9, 0.0, 2023-09-14 11:03:26.640
179.0, -10.527671638449627, 187500.0, 187500.0, 187500.0, 187500.0, 187500.0, 187500.0, 187500.0, 0.034, -0.026000000000000002, 1.008, 192.0, 0.0, 0.0, 0.0, 0.0, 0.0, 0.0, 0.0, 0.0, 0.0, 1.6946822066409647E9, 0.0, 2023-09-14 11:03:26.640
180.0, -15.310944951885338, 187500.0, 187500.0, 187500.0, 187500.0, 187500.0, 187500.0, 187500.0, 0.034, -0.026000000000000002, 1.008, 192.0, 0.0, 0.0, 0.0, 0.0, 0.0, 0.0, 0.0, 0.0, 0.0, 1.6946822066410077E9, 0.0, 2023-09-14 11:03:26.641
181.0, -33.41585796068406, 187500.0, 187500.0, 187500.0, 187500.0, 187500.0, 187500.0, 187500.0, 0.034, -0.026000000000000002, 1.008, 192.0, 0.0, 0.0, 0.0, 0.0, 0.0, 0.0, 0.0, 0.0, 0.0, 1.6946822066410496E9, 0.0, 2023-09-14 11:03:26.641
182.0, -37.90855859620078, 187500.0, 187500.0, 187500.0, 187500.0, 187500.0, 187500.0, 187500.0, 0.034, -0.026000000000000002, 1.008, 192.0, 0.0, 0.0, 0.0, 0.0, 0.0, 0.0, 0.0, 0.0, 0.0, 1.6946822066410928E9, 0.0, 2023-09-14 11:03:26.641
183.0, -38.310889996396305, 187500.0, 187500.0, 187500.0, 187500.0, 187500.0, 187500.0, 187500.0, 0.034, -0.026000000000000002, 1.008, 192.0, 0.0, 0.0, 0.0, 0.0, 0.0, 0.0, 0.0, 0.0, 0.0, 1.694682206641141E9, 0.0, 2023-09-14 11:03:26.641
184.0, -33.28174749395222, 187500.0, 187500.0, 187500.0, 187500.0, 187500.0, 187500.0, 187500.0, 0.034, -0.026000000000000002, 1.008, 192.0, 0.0, 0.0, 0.0, 0.0, 0.0, 0.0, 0.0, 0.0, 0.0, 1.6946822066411858E9, 0.0, 2023-09-14 11:03:26.641
185.0, -15.06507576287696, 187500.0, 187500.0, 187500.0, 187500.0, 187500.0, 187500.0, 187500.0, 0.034, -0.026000000000000002, 1.008, 192.0, 0.0, 0.0, 0.0, 0.0, 0.0, 0.0, 0.0, 0.0, 0.0, 1.6946822066412296E9, 0.0, 2023-09-14 11:03:26.641
186.0, -10.371209427262476, 187500.0, 187500.0, 187500.0, 187500.0, 187500.0, 187500.0, 187500.0, 0.034, -0.026000000000000002, 1.008, 192.0, 0.0, 0.0, 0.0, 0.0, 0.0, 0.0, 0.0, 0.0, 0.0, 1.6946822066412768E9, 0.0, 2023-09-14 11:03:26.641
187.0, -10.482968149539012, 187500.0, 187500.0, 187500.0, 187500.0, 187500.0, 187500.0, 187500.0, 0.034, -0.026000000000000002, 1.008, 192.0, 1.0, 16.0, 255.0, 48.0, 31.0, 128.0, 0.0, 0.0, 0.0, 1.6946822066413224E9, 0.0, 2023-09-14 11:03:26.641
188.0, -15.422703674161873, 187500.0, 187500.0, 187500.0, 187500.0, 187500.0, 187500.0, 187500.0, 0.034, -0.026000000000000002, 1.008, 192.0, 0.0, 0.0, 0.0, 0.0, 0.0, 0.0, 0.0, 0.0, 0.0, 1.6946822066413713E9, 0.0, 2023-09-14 11:03:26.641
189.0, -33.90759633870081, 187500.0, 187500.0, 187500.0, 187500.0, 187500.0, 187500.0, 187500.0, 0.034, -0.026000000000000002, 1.008, 192.0, 0.0, 0.0, 0.0, 0.0, 0.0, 0.0, 0.0, 0.0, 0.0, 1.6946822066415038E9, 0.0, 2023-09-14 11:03:26.641
190.0, -37.84150336283486, 187500.0, 187500.0, 187500.0, 187500.0, 187500.0, 187500.0, 187500.0, 0.034, -0.026000000000000002, 1.008, 192.0, 0.0, 0.0, 0.0, 0.0, 0.0, 0.0, 0.0, 0.0, 0.0, 1.6946822066415472E9, 0.0, 2023-09-14 11:03:26.641
191.0, -38.02031731847731, 187500.0, 187500.0, 187500.0, 187500.0, 187500.0, 187500.0, 187500.0, 0.034, -0.026000000000000002, 1.008, 192.0, 0.0, 0.0, 0.0, 0.0, 0.0, 0.0, 0.0, 0.0, 0.0, 1.6946822066415744E9, 0.0, 2023-09-14 11:03:26.641
192.0, -33.304099238407524, 187500.0, 187500.0, 187500.0, 187500.0, 187500.0, 187500.0, 187500.0, 0.034, -0.026000000000000002, 1.008, 192.0, 0.0, 0.0, 0.0, 0.0, 0.0, 0.0, 0.0, 0.0, 0.0, 1.6946822066416028E9, 0.0, 2023-09-14 11:03:26.641
193.0, -15.154482740698189, 187500.0, 187500.0, 187500.0, 187500.0, 187500.0, 187500.0, 187500.0, 0.034, -0.026000000000000002, 1.008, 192.0, 0.0, 0.0, 0.0, 0.0, 0.0, 0.0, 0.0, 0.0, 0.0, 1.6946822066416445E9, 0.0, 2023-09-14 11:03:26.641
194.0, -10.639430360726163, 187500.0, 187500.0, 187500.0, 187500.0, 187500.0, 187500.0, 187500.0, 0.034, -0.026000000000000002, 1.008, 192.0, 0.0, 0.0, 0.0, 0.0, 0.0, 0.0, 0.0, 0.0, 0.0, 1.694682206641696E9, 0.0, 2023-09-14 11:03:26.641
195.0, -10.527671638449627, 187500.0, 187500.0, 187500.0, 187500.0, 187500.0, 187500.0, 187500.0, 0.034, -0.026000000000000002, 1.008, 192.0, 0.0, 0.0, 0.0, 0.0, 0.0, 0.0, 0.0, 0.0, 0.0, 1.694682206641736E9, 0.0, 2023-09-14 11:03:26.641
196.0, -15.44505541861718, 187500.0, 187500.0, 187500.0, 187500.0, 187500.0, 187500.0, 187500.0, 0.034, -0.026000000000000002, 1.008, 192.0, 0.0, 0.0, 0.0, 0.0, 0.0, 0.0, 0.0, 0.0, 0.0, 1.6946822066417637E9, 0.0, 2023-09-14 11:03:26.641
197.0, -33.84054110533489, 187500.0, 187500.0, 187500.0, 187500.0, 187500.0, 187500.0, 187500.0, 0.038, -0.022, 1.002, 192.0, 1.0, 48.0, 255.0, 80.0, 31.0, 80.0, 0.0, 0.0, 0.0, 1.6946822066418018E9, 0.0, 2023-09-14 11:03:26.641
198.0, -38.02031731847731, 187500.0, 187500.0, 187500.0, 187500.0, 187500.0, 187500.0, 187500.0, 0.038, -0.022, 1.002, 192.0, 0.0, 0.0, 0.0, 0.0, 0.0, 0.0, 0.0, 0.0, 0.0, 1.6946822066418312E9, 0.0, 2023-09-14 11:03:26.641
199.0, -37.9756138295667, 187500.0, 187500.0, 187500.0, 187500.0, 187500.0, 187500.0, 187500.0, 0.038, -0.022, 1.002, 192.0, 0.0, 0.0, 0.0, 0.0, 0.0, 0.0, 0.0, 0.0, 0.0, 1.6946822066418576E9, 0.0, 2023-09-14 11:03:26.641
200.0, -32.9241195826673, 187500.0, 187500.0, 187500.0, 187500.0, 187500.0, 187500.0, 187500.0, 0.038, -0.022, 1.002, 192.0, 0.0, 0.0, 0.0, 0.0, 0.0, 0.0, 0.0, 0.0, 0.0, 1.6946822066418853E9, 0.0, 2023-09-14 11:03:26.641
201.0, -14.506282151494284, 187500.0, 187500.0, 187500.0, 187500.0, 187500.0, 187500.0, 187500.0, 0.038, -0.022, 1.002, 192.0, 0.0, 0.0, 0.0, 0.0, 0.0, 0.0, 0.0, 0.0, 0.0, 1.6946822066419137E9, 0.0, 2023-09-14 11:03:26.641
202.0, -10.550023382904934, 187500.0, 187500.0, 187500.0, 187500.0, 187500.0, 187500.0, 187500.0, 0.038, -0.022, 1.002, 192.0, 0.0, 0.0, 0.0, 0.0, 0.0, 0.0, 0.0, 0.0, 0.0, 1.694682206641941E9, 0.0, 2023-09-14 11:03:26.641
203.0, -10.460616405083705, 187500.0, 187500.0, 187500.0, 187500.0, 187500.0, 187500.0, 187500.0, 0.038, -0.022, 1.002, 192.0, 0.0, 0.0, 0.0, 0.0, 0.0, 0.0, 0.0, 0.0, 0.0, 1.6946822066419833E9, 0.0, 2023-09-14 11:03:26.641
204.0, -15.288593207430031, 187500.0, 187500.0, 187500.0, 187500.0, 187500.0, 187500.0, 187500.0, 0.038, -0.022, 1.002, 192.0, 0.0, 0.0, 0.0, 0.0, 0.0, 0.0, 0.0, 0.0, 0.0, 1.694682206642026E9, 0.0, 2023-09-14 11:03:26.642
205.0, -33.72878238305836, 187500.0, 187500.0, 187500.0, 187500.0, 187500.0, 187500.0, 187500.0, 0.038, -0.022, 1.002, 192.0, 0.0, 0.0, 0.0, 0.0, 0.0, 0.0, 0.0, 0.0, 0.0, 1.6946822066422267E9, 0.0, 2023-09-14 11:03:26.642
206.0, -37.930910340656084, 187500.0, 187500.0, 187500.0, 187500.0, 187500.0, 187500.0, 187500.0, 0.038, -0.022, 1.002, 192.0, 0.0, 0.0, 0.0, 0.0, 0.0, 0.0, 0.0, 0.0, 0.0, 1.6946822066423943E9, 0.0, 2023-09-14 11:03:26.642
207.0, -38.15442778520916, 187500.0, 187500.0, 187500.0, 187500.0, 187500.0, 187500.0, 187500.0, 0.036000000000000004, -0.026000000000000002, 1.004, 192.0, 1.0, 32.0, 255.0, 48.0, 31.0, 96.0, 0.0, 0.0, 0.0, 1.6946822066424444E9, 0.0, 2023-09-14 11:03:26.642
208.0, -33.438209705139364, 187500.0, 187500.0, 187500.0, 187500.0, 187500.0, 187500.0, 187500.0, 0.036000000000000004, -0.026000000000000002, 1.004, 192.0, 0.0, 0.0, 0.0, 0.0, 0.0, 0.0, 0.0, 0.0, 0.0, 1.6946822066424963E9, 0.0, 2023-09-14 11:03:26.642
209.0, -15.109779251787574, 187500.0, 187500.0, 187500.0, 187500.0, 187500.0, 187500.0, 187500.0, 0.036000000000000004, -0.026000000000000002, 1.004, 192.0, 0.0, 0.0, 0.0, 0.0, 0.0, 0.0, 0.0, 0.0, 0.0, 1.694682206642537E9, 0.0, 2023-09-14 11:03:26.642
210.0, -10.371209427262476, 187500.0, 187500.0, 187500.0, 187500.0, 187500.0, 187500.0, 187500.0, 0.036000000000000004, -0.026000000000000002, 1.004, 192.0, 0.0, 0.0, 0.0, 0.0, 0.0, 0.0, 0.0, 0.0, 0.0, 1.6946822066425793E9, 0.0, 2023-09-14 11:03:26.642
211.0, -10.371209427262476, 187500.0, 187500.0, 187500.0, 187500.0, 187500.0, 187500.0, 187500.0, 0.036000000000000004, -0.026000000000000002, 1.004, 192.0, 0.0, 0.0, 0.0, 0.0, 0.0, 0.0, 0.0, 0.0, 0.0, 1.6946822066426206E9, 0.0, 2023-09-14 11:03:26.642
212.0, -15.243889718519418, 187500.0, 187500.0, 187500.0, 187500.0, 187500.0, 187500.0, 187500.0, 0.036000000000000004, -0.026000000000000002, 1.004, 192.0, 0.0, 0.0, 0.0, 0.0, 0.0, 0.0, 0.0, 0.0, 0.0, 1.69468220664266E9, 0.0, 2023-09-14 11:03:26.642
213.0, -33.90759633870081, 187500.0, 187500.0, 187500.0, 187500.0, 187500.0, 187500.0, 187500.0, 0.036000000000000004, -0.026000000000000002, 1.004, 192.0, 0.0, 0.0, 0.0, 0.0, 0.0, 0.0, 0.0, 0.0, 0.0, 1.694682206642705E9, 0.0, 2023-09-14 11:03:26.642
214.0, -38.46735220758345, 187500.0, 187500.0, 187500.0, 187500.0, 187500.0, 187500.0, 187500.0, 0.036000000000000004, -0.026000000000000002, 1.004, 192.0, 0.0, 0.0, 0.0, 0.0, 0.0, 0.0, 0.0, 0.0, 0.0, 1.6946822066427526E9, 0.0, 2023-09-14 11:03:26.642
215.0, -38.22148301857508, 187500.0, 187500.0, 187500.0, 187500.0, 187500.0, 187500.0, 187500.0, 0.036000000000000004, -0.026000000000000002, 1.004, 192.0, 0.0, 0.0, 0.0, 0.0, 0.0, 0.0, 0.0, 0.0, 0.0, 1.6946822066428018E9, 0.0, 2023-09-14 11:03:26.642
216.0, -33.304099238407524, 187500.0, 187500.0, 187500.0, 187500.0, 187500.0, 187500.0, 187500.0, 0.036000000000000004, -0.026000000000000002, 1.004, 192.0, 0.0, 0.0, 0.0, 0.0, 0.0, 0.0, 0.0, 0.0, 0.0, 1.694682206642843E9, 0.0, 2023-09-14 11:03:26.642
217.0, -15.06507576287696, 187500.0, 187500.0, 187500.0, 187500.0, 187500.0, 187500.0, 187500.0, 0.04, -0.022, 1.002, 192.0, 1.0, 64.0, 255.0, 80.0, 31.0, 80.0, 0.0, 0.0, 0.0, 1.6946822066428874E9, 0.0, 2023-09-14 11:03:26.642
218.0, -10.438264660628398, 187500.0, 187500.0, 187500.0, 187500.0, 187500.0, 187500.0, 187500.0, 0.04, -0.022, 1.002, 192.0, 0.0, 0.0, 0.0, 0.0, 0.0, 0.0, 0.0, 0.0, 0.0, 1.694682206642943E9, 0.0, 2023-09-14 11:03:26.642
219.0, -10.482968149539012, 187500.0, 187500.0, 187500.0, 187500.0, 187500.0, 187500.0, 187500.0, 0.04, -0.022, 1.002, 192.0, 0.0, 0.0, 0.0, 0.0, 0.0, 0.0, 0.0, 0.0, 0.0, 1.6946822066429904E9, 0.0, 2023-09-14 11:03:26.642
220.0, -15.623869374259638, 187500.0, 187500.0, 187500.0, 187500.0, 187500.0, 187500.0, 187500.0, 0.04, -0.022, 1.002, 192.0, 0.0, 0.0, 0.0, 0.0, 0.0, 0.0, 0.0, 0.0, 0.0, 1.694682206643203E9, 0.0, 2023-09-14 11:03:26.643
221.0, -33.8628928497902, 187500.0, 187500.0, 187500.0, 187500.0, 187500.0, 187500.0, 187500.0, 0.04, -0.022, 1.002, 192.0, 0.0, 0.0, 0.0, 0.0, 0.0, 0.0, 0.0, 0.0, 0.0, 1.6946822066432512E9, 0.0, 2023-09-14 11:03:26.643
222.0, -38.109724296298545, 187500.0, 187500.0, 187500.0, 187500.0, 187500.0, 187500.0, 187500.0, 0.04, -0.022, 1.002, 192.0, 0.0, 0.0, 0.0, 0.0, 0.0, 0.0, 0.0, 0.0, 0.0, 1.694682206643293E9, 0.0, 2023-09-14 11:03:26.643
223.0, -38.19913127411977, 187500.0, 187500.0, 187500.0, 187500.0, 187500.0, 187500.0, 187500.0, 0.04, -0.022, 1.002, 192.0, 0.0, 0.0, 0.0, 0.0, 0.0, 0.0, 0.0, 0.0, 0.0, 1.694682206643339E9, 0.0, 2023-09-14 11:03:26.643
224.0, -33.39350621622875, 187500.0, 187500.0, 187500.0, 187500.0, 187500.0, 187500.0, 187500.0, 0.04, -0.022, 1.002, 192.0, 0.0, 0.0, 0.0, 0.0, 0.0, 0.0, 0.0, 0.0, 0.0, 1.6946822066433809E9, 0.0, 2023-09-14 11:03:26.643
225.0, -14.774503084957969, 187500.0, 187500.0, 187500.0, 187500.0, 187500.0, 187500.0, 187500.0, 0.04, -0.022, 1.002, 192.0, 0.0, 0.0, 0.0, 0.0, 0.0, 0.0, 0.0, 0.0, 0.0, 1.6946822071184633E9, 0.0, 2023-09-14 11:03:27.118
226.0, -10.482968149539012, 187500.0, 187500.0, 187500.0, 187500.0, 187500.0, 187500.0, 187500.0, 0.04, -0.022, 1.002, 192.0, 0.0, 0.0, 0.0, 0.0, 0.0, 0.0, 0.0, 0.0, 0.0, 1.694682207118637E9, 0.0, 2023-09-14 11:03:27.118
227.0, -10.505319893994319, 187500.0, 187500.0, 187500.0, 187500.0, 187500.0, 187500.0, 187500.0, 0.034, -0.02, 1.002, 192.0, 1.0, 16.0, 255.0, 96.0, 31.0, 80.0, 0.0, 0.0, 0.0, 1.6946822071186914E9, 0.0, 2023-09-14 11:03:27.118
228.0, -15.556814140893716, 187500.0, 187500.0, 187500.0, 187500.0, 187500.0, 187500.0, 187500.0, 0.034, -0.02, 1.002, 192.0, 0.0, 0.0, 0.0, 0.0, 0.0, 0.0, 0.0, 0.0, 0.0, 1.6946822071187394E9, 0.0, 2023-09-14 11:03:27.118
229.0, -34.13111378325389, 187500.0, 187500.0, 187500.0, 187500.0, 187500.0, 187500.0, 187500.0, 0.034, -0.02, 1.002, 192.0, 0.0, 0.0, 0.0, 0.0, 0.0, 0.0, 0.0, 0.0, 0.0, 1.6946822071187897E9, 0.0, 2023-09-14 11:03:27.118
230.0, -37.997965574022004, 187500.0, 187500.0, 187500.0, 187500.0, 187500.0, 187500.0, 187500.0, 0.034, -0.02, 1.002, 192.0, 0.0, 0.0, 0.0, 0.0, 0.0, 0.0, 0.0, 0.0, 0.0, 1.6946822071188452E9, 0.0, 2023-09-14 11:03:27.118
231.0, -37.79679987392424, 187500.0, 187500.0, 187500.0, 187500.0, 187500.0, 187500.0, 187500.0, 0.034, -0.02, 1.002, 192.0, 0.0, 0.0, 0.0, 0.0, 0.0, 0.0, 0.0, 0.0, 0.0, 1.6946822071188796E9, 0.0, 2023-09-14 11:03:27.118
232.0, -33.05823004939914, 187500.0, 187500.0, 187500.0, 187500.0, 187500.0, 187500.0, 187500.0, 0.034, -0.02, 1.002, 192.0, 0.0, 0.0, 0.0, 0.0, 0.0, 0.0, 0.0, 0.0, 0.0, 1.6946822071189084E9, 0.0, 2023-09-14 11:03:27.118
233.0, -14.774503084957969, 187500.0, 187500.0, 187500.0, 187500.0, 187500.0, 187500.0, 187500.0, 0.034, -0.02, 1.002, 192.0, 0.0, 0.0, 0.0, 0.0, 0.0, 0.0, 0.0, 0.0, 0.0, 1.6946822071189363E9, 0.0, 2023-09-14 11:03:27.118
234.0, -10.773540827458005, 187500.0, 187500.0, 187500.0, 187500.0, 187500.0, 187500.0, 187500.0, 0.034, -0.02, 1.002, 192.0, 0.0, 0.0, 0.0, 0.0, 0.0, 0.0, 0.0, 0.0, 0.0, 1.6946822071189656E9, 0.0, 2023-09-14 11:03:27.118
235.0, -10.527671638449627, 187500.0, 187500.0, 187500.0, 187500.0, 187500.0, 187500.0, 187500.0, 0.034, -0.02, 1.002, 192.0, 0.0, 0.0, 0.0, 0.0, 0.0, 0.0, 0.0, 0.0, 0.0, 1.6946822071282864E9, 0.0, 2023-09-14 11:03:27.128
236.0, -15.400351929706567, 187500.0, 187500.0, 187500.0, 187500.0, 187500.0, 187500.0, 187500.0, 0.034, -0.02, 1.002, 192.0, 0.0, 0.0, 0.0, 0.0, 0.0, 0.0, 0.0, 0.0, 0.0, 1.6946822071284516E9, 0.0, 2023-09-14 11:03:27.128
237.0, -33.72878238305836, 187500.0, 187500.0, 187500.0, 187500.0, 187500.0, 187500.0, 187500.0, 0.032, -0.022, 1.002, 192.0, 1.0, 0.0, 255.0, 80.0, 31.0, 80.0, 0.0, 0.0, 0.0, 1.6946822071285136E9, 0.0, 2023-09-14 11:03:27.128
238.0, -37.997965574022004, 187500.0, 187500.0, 187500.0, 187500.0, 187500.0, 187500.0, 187500.0, 0.032, -0.022, 1.002, 192.0, 0.0, 0.0, 0.0, 0.0, 0.0, 0.0, 0.0, 0.0, 0.0, 1.6946822071285875E9, 0.0, 2023-09-14 11:03:27.128
239.0, -38.04266906293262, 187500.0, 187500.0, 187500.0, 187500.0, 187500.0, 187500.0, 187500.0, 0.032, -0.022, 1.002, 192.0, 0.0, 0.0, 0.0, 0.0, 0.0, 0.0, 0.0, 0.0, 0.0, 1.6946822071286373E9, 0.0, 2023-09-14 11:03:27.128
240.0, -33.01352656048853, 187500.0, 187500.0, 187500.0, 187500.0, 187500.0, 187500.0, 187500.0, 0.032, -0.022, 1.002, 192.0, 0.0, 0.0, 0.0, 0.0, 0.0, 0.0, 0.0, 0.0, 0.0, 1.694682207128682E9, 0.0, 2023-09-14 11:03:27.128
241.0, -15.020372273966347, 187500.0, 187500.0, 187500.0, 187500.0, 187500.0, 187500.0, 187500.0, 0.032, -0.022, 1.002, 192.0, 0.0, 0.0, 0.0, 0.0, 0.0, 0.0, 0.0, 0.0, 0.0, 1.6946822071287372E9, 0.0, 2023-09-14 11:03:27.128
242.0, -10.751189083002696, 187500.0, 187500.0, 187500.0, 187500.0, 187500.0, 187500.0, 187500.0, 0.032, -0.022, 1.002, 192.0, 0.0, 0.0, 0.0, 0.0, 0.0, 0.0, 0.0, 0.0, 0.0, 1.6946822071287928E9, 0.0, 2023-09-14 11:03:27.128
243.0, -10.482968149539012, 187500.0, 187500.0, 187500.0, 187500.0, 187500.0, 187500.0, 187500.0, 0.032, -0.022, 1.002, 192.0, 0.0, 0.0, 0.0, 0.0, 0.0, 0.0, 0.0, 0.0, 0.0, 1.6946822071288407E9, 0.0, 2023-09-14 11:03:27.128
244.0, -15.355648440795951, 187500.0, 187500.0, 187500.0, 187500.0, 187500.0, 187500.0, 187500.0, 0.032, -0.022, 1.002, 192.0, 0.0, 0.0, 0.0, 0.0, 0.0, 0.0, 0.0, 0.0, 0.0, 1.694682207128883E9, 0.0, 2023-09-14 11:03:27.128
245.0, -33.438209705139364, 187500.0, 187500.0, 187500.0, 187500.0, 187500.0, 187500.0, 187500.0, 0.032, -0.022, 1.002, 192.0, 0.0, 0.0, 0.0, 0.0, 0.0, 0.0, 0.0, 0.0, 0.0, 1.6946822071289244E9, 0.0, 2023-09-14 11:03:27.128
246.0, -37.59563417382648, 187500.0, 187500.0, 187500.0, 187500.0, 187500.0, 187500.0, 187500.0, 0.032, -0.022, 1.002, 192.0, 0.0, 0.0, 0.0, 0.0, 0.0, 0.0, 0.0, 0.0, 0.0, 1.694682207128983E9, 0.0, 2023-09-14 11:03:27.128
247.0, -38.08737255184324, 187500.0, 187500.0, 187500.0, 187500.0, 187500.0, 187500.0, 187500.0, 0.032, -0.024, 1.002, 192.0, 1.0, 0.0, 255.0, 64.0, 31.0, 80.0, 0.0, 0.0, 0.0, 1.694682207129052E9, 0.0, 2023-09-14 11:03:27.129
248.0, -33.438209705139364, 187500.0, 187500.0, 187500.0, 187500.0, 187500.0, 187500.0, 187500.0, 0.032, -0.024, 1.002, 192.0, 0.0, 0.0, 0.0, 0.0, 0.0, 0.0, 0.0, 0.0, 0.0, 1.6946822071291041E9, 0.0, 2023-09-14 11:03:27.129
249.0, -15.020372273966347, 187500.0, 187500.0, 187500.0, 187500.0, 187500.0, 187500.0, 187500.0, 0.032, -0.024, 1.002, 192.0, 0.0, 0.0, 0.0, 0.0, 0.0, 0.0, 0.0, 0.0, 0.0, 1.6946822071291523E9, 0.0, 2023-09-14 11:03:27.129
250.0, -10.326505938351863, 187500.0, 187500.0, 187500.0, 187500.0, 187500.0, 187500.0, 187500.0, 0.032, -0.024, 1.002, 192.0, 0.0, 0.0, 0.0, 0.0, 0.0, 0.0, 0.0, 0.0, 0.0, 1.694682207129502E9, 0.0, 2023-09-14 11:03:27.129
251.0, -10.415912916173092, 187500.0, 187500.0, 187500.0, 187500.0, 187500.0, 187500.0, 187500.0, 0.032, -0.024, 1.002, 192.0, 0.0, 0.0, 0.0, 0.0, 0.0, 0.0, 0.0, 0.0, 0.0, 1.694682207129553E9, 0.0, 2023-09-14 11:03:27.129
252.0, -15.489758907527795, 187500.0, 187500.0, 187500.0, 187500.0, 187500.0, 187500.0, 187500.0, 0.032, -0.024, 1.002, 192.0, 0.0, 0.0, 0.0, 0.0, 0.0, 0.0, 0.0, 0.0, 0.0, 1.6946822071296048E9, 0.0, 2023-09-14 11:03:27.129
253.0, -34.086410294343274, 187500.0, 187500.0, 187500.0, 187500.0, 187500.0, 187500.0, 187500.0, 0.032, -0.024, 1.002, 192.0, 0.0, 0.0, 0.0, 0.0, 0.0, 0.0, 0.0, 0.0, 0.0, 1.694682207129649E9, 0.0, 2023-09-14 11:03:27.129
254.0, -38.42264871867284, 187500.0, 187500.0, 187500.0, 187500.0, 187500.0, 187500.0, 187500.0, 0.032, -0.024, 1.002, 192.0, 0.0, 0.0, 0.0, 0.0, 0.0, 0.0, 0.0, 0.0, 0.0, 1.694682207129694E9, 0.0, 2023-09-14 11:03:27.129
255.0, -37.9756138295667, 187500.0, 187500.0, 187500.0, 187500.0, 187500.0, 187500.0, 187500.0, 0.032, -0.024, 1.002, 192.0, 0.0, 0.0, 0.0, 0.0, 0.0, 0.0, 0.0, 0.0, 0.0, 1.6946822071297383E9, 0.0, 2023-09-14 11:03:27.129
0.0, -33.14763702722038, 187500.0, 187500.0, 187500.0, 187500.0, 187500.0, 187500.0, 187500.0, 0.032, -0.024, 1.002, 192.0, 0.0, 0.0, 0.0, 0.0, 0.0, 0.0, 0.0, 0.0, 0.0, 1.6946822071298003E9, 0.0, 2023-09-14 11:03:27.129
1.0, -14.908613551689811, 187500.0, 187500.0, 187500.0, 187500.0, 187500.0, 187500.0, 187500.0, 0.034, -0.022, 1.002, 192.0, 1.0, 16.0, 255.0, 80.0, 31.0, 80.0, 0.0, 0.0, 0.0, 1.6946822071299176E9, 0.0, 2023-09-14 11:03:27.129
2.0, -10.550023382904934, 187500.0, 187500.0, 187500.0, 187500.0, 187500.0, 187500.0, 187500.0, 0.034, -0.022, 1.002, 192.0, 0.0, 0.0, 0.0, 0.0, 0.0, 0.0, 0.0, 0.0, 0.0, 1.694682207129982E9, 0.0, 2023-09-14 11:03:27.129
3.0, -10.66178210518147, 187500.0, 187500.0, 187500.0, 187500.0, 187500.0, 187500.0, 187500.0, 0.034, -0.022, 1.002, 192.0, 0.0, 0.0, 0.0, 0.0, 0.0, 0.0, 0.0, 0.0, 0.0, 1.694682207130028E9, 0.0, 2023-09-14 11:03:27.130
4.0, -15.489758907527795, 187500.0, 187500.0, 187500.0, 187500.0, 187500.0, 187500.0, 187500.0, 0.034, -0.022, 1.002, 192.0, 0.0, 0.0, 0.0, 0.0, 0.0, 0.0, 0.0, 0.0, 0.0, 1.6946822071300735E9, 0.0, 2023-09-14 11:03:27.130
5.0, -34.01935506097735, 187500.0, 187500.0, 187500.0, 187500.0, 187500.0, 187500.0, 187500.0, 0.034, -0.022, 1.002, 192.0, 0.0, 0.0, 0.0, 0.0, 0.0, 0.0, 0.0, 0.0, 0.0, 1.6946822071301174E9, 0.0, 2023-09-14 11:03:27.130
6.0, -37.930910340656084, 187500.0, 187500.0, 187500.0, 187500.0, 187500.0, 187500.0, 187500.0, 0.034, -0.022, 1.002, 192.0, 0.0, 0.0, 0.0, 0.0, 0.0, 0.0, 0.0, 0.0, 0.0, 1.6946822071301637E9, 0.0, 2023-09-14 11:03:27.130
7.0, -37.90855859620078, 187500.0, 187500.0, 187500.0, 187500.0, 187500.0, 187500.0, 187500.0, 0.034, -0.022, 1.002, 192.0, 0.0, 0.0, 0.0, 0.0, 0.0, 0.0, 0.0, 0.0, 0.0, 1.6946822071302085E9, 0.0, 2023-09-14 11:03:27.130
8.0, -33.28174749395222, 187500.0, 187500.0, 187500.0, 187500.0, 187500.0, 187500.0, 187500.0, 0.034, -0.022, 1.002, 192.0, 0.0, 0.0, 0.0, 0.0, 0.0, 0.0, 0.0, 0.0, 0.0, 1.6946822071302552E9, 0.0, 2023-09-14 11:03:27.130
9.0, -14.752151340502662, 187500.0, 187500.0, 187500.0, 187500.0, 187500.0, 187500.0, 187500.0, 0.034, -0.022, 1.002, 192.0, 0.0, 0.0, 0.0, 0.0, 0.0, 0.0, 0.0, 0.0, 0.0, 1.6946822071302977E9, 0.0, 2023-09-14 11:03:27.130
