%OpenBCI Raw EXG Data
%Number of channels = 8
%Sample Rate = 250 Hz
%Board = OpenBCI_GUI$BoardCytonSerial
Sample Index, EXG Channel 0, EXG Channel 1, EXG Channel 2, EXG Channel 3, EXG Channel 4, EXG Channel 5, EXG Channel 6, EXG Channel 7, Accel Channel 0, Accel Channel 1, Accel Channel 2, Other, Other, Other, Other, Other, Other, Other, Analog Channel 0, Analog Channel 1, Analog Channel 2, Timestamp, Other, Timestamp (Formatted)
0.0, 0.0, 0.0, 0.0, 0.0, 0.0, 0.0, 0.0, 0.0, 0.036000000000000004, -0.02, 1.004, 192.0, 1.0, 32.0, 255.0, 96.0, 31.0, 96.0, 0.0, 0.0, 0.0, 1.6946820553264756E9, 0.0, 2023-09-14 11:00:55.326
1.0, -13.969840284566914, 187500.0, 187500.0, 187500.0, 187500.0, 187500.0, 187500.0, 187500.0, 0.036000000000000004, -0.02, 1.004, 192.0, 0.0, 0.0, 0.0, 0.0, 0.0, 0.0, 0.0, 0.0, 0.0, 1.694682055815034E9, 0.0, 2023-09-14 11:00:55.815
2.0, -9.030104759944054, 187500.0, 187500.0, 187500.0, 187500.0, 187500.0, 187500.0, 187500.0, 0.036000000000000004, -0.02, 1.004, 192.0, 0.0, 0.0, 0.0, 0.0, 0.0, 0.0, 0.0, 0.0, 0.0, 1.6946820558151245E9, 0.0, 2023-09-14 11:00:55.815
3.0, -9.544194882416116, 187500.0, 187500.0, 187500.0, 187500.0, 187500.0, 187500.0, 187500.0, 0.036000000000000004, -0.02, 1.004, 192.0, 0.0, 0.0, 0.0, 0.0, 0.0, 0.0, 0.0, 0.0, 0.0, 1.6946820558152049E9, 0.0, 2023-09-14 11:00:55.815
4.0, -15.199186229608802, 187500.0, 187500.0, 187500.0, 187500.0, 187500.0, 187500.0, 187500.0, 0.036000000000000004, -0.02, 1.004, 192.0, 0.0, 0.0, 0.0, 0.0, 0.0, 0.0, 0.0, 0.0, 0.0, 1.694682055815251E9, 0.0, 2023-09-14 11:00:55.815
5.0, -34.600500416815336, 187500.0, 187500.0, 187500.0, 187500.0, 187500.0, 187500.0, 187500.0, 0.036000000000000004, -0.02, 1.004, 192.0, 0.0, 0.0, 0.0, 0.0, 0.0, 0.0, 0.0, 0.0, 0.0, 1.6946820558152974E9, 0.0, 2023-09-14 11:00:55.815
6.0, -38.73557314104714, 187500.0, 187500.0, 187500.0, 187500.0, 187500.0, 187500.0, 187500.0, 0.036000000000000004, -0.02, 1.004, 192.0, 0.0, 0.0, 0.0, 0.0, 0.0, 0.0, 0.0, 0.0, 0.0, 1.6946820558153446E9, 0.0, 2023-09-14 11:00:55.815
7.0, -38.33324174085161, 187500.0, 187500.0, 187500.0, 187500.0, 187500.0, 187500.0, 187500.0, 0.036000000000000004, -0.02, 1.004, 192.0, 0.0, 0.0, 0.0, 0.0, 0.0, 0.0, 0.0, 0.0, 0.0, 1.69468205581539E9, 0.0, 2023-09-14 11:00:55.815
8.0, -33.684078894147746, 187500.0, 187500.0, 187500.0, 187500.0, 187500.0, 187500.0, 187500.0, 0.034, -0.024, 1.006, 192.0, 1.0, 16.0, 255.0, 64.0, 31.0, 112.0, 0.0, 0.0, 0.0, 1.6946820558154633E9, 0.0, 2023-09-14 11:00:55.815
9.0, -14.528633895949591, 187500.0, 187500.0, 187500.0, 187500.0, 187500.0, 187500.0, 187500.0, 0.034, -0.024, 1.006, 192.0, 0.0, 0.0, 0.0, 0.0, 0.0, 0.0, 0.0, 0.0, 0.0, 1.6946820558155212E9, 0.0, 2023-09-14 11:00:55.815
10.0, -9.320677437863045, 187500.0, 187500.0, 187500.0, 187500.0, 187500.0, 187500.0, 187500.0, 0.034, -0.024, 1.006, 192.0, 0.0, 0.0, 0.0, 0.0, 0.0, 0.0, 0.0, 0.0, 0.0, 1.69468205581557E9, 0.0, 2023-09-14 11:00:55.815
11.0, -9.186566971131203, 187500.0, 187500.0, 187500.0, 187500.0, 187500.0, 187500.0, 187500.0, 0.034, -0.024, 1.006, 192.0, 0.0, 0.0, 0.0, 0.0, 0.0, 0.0, 0.0, 0.0, 0.0, 1.6946820558156152E9, 0.0, 2023-09-14 11:00:55.815
12.0, -13.9251367956563, 187500.0, 187500.0, 187500.0, 187500.0, 187500.0, 187500.0, 187500.0, 0.034, -0.024, 1.006, 192.0, 0.0, 0.0, 0.0, 0.0, 0.0, 0.0, 0.0, 0.0, 0.0, 1.6946820558156605E9, 0.0, 2023-09-14 11:00:55.815
13.0, -34.220520761075115, 187500.0, 187500.0, 187500.0, 187500.0, 187500.0, 187500.0, 187500.0, 0.034, -0.024, 1.006, 192.0, 0.0, 0.0, 0.0, 0.0, 0.0, 0.0, 0.0, 0.0, 0.0, 1.694682055815704E9, 0.0, 2023-09-14 11:00:55.815
14.0, -38.9367388411449, 187500.0, 187500.0, 187500.0, 187500.0, 187500.0, 187500.0, 187500.0, 0.034, -0.024, 1.006, 192.0, 0.0, 0.0, 0.0, 0.0, 0.0, 0.0, 0.0, 0.0, 0.0, 1.694682055815744E9, 0.0, 2023-09-14 11:00:55.815
15.0, -38.80262837441306, 187500.0, 187500.0, 187500.0, 187500.0, 187500.0, 187500.0, 187500.0, 0.034, -0.024, 1.006, 192.0, 0.0, 0.0, 0.0, 0.0, 0.0, 0.0, 0.0, 0.0, 0.0, 1.6946820558157887E9, 0.0, 2023-09-14 11:00:55.815
16.0, -33.70643063860305, 187500.0, 187500.0, 187500.0, 187500.0, 187500.0, 187500.0, 187500.0, 0.034, -0.024, 1.006, 192.0, 0.0, 0.0, 0.0, 0.0, 0.0, 0.0, 0.0, 0.0, 0.0, 1.6946820558161223E9, 0.0, 2023-09-14 11:00:55.816
17.0, -13.880433306745687, 187500.0, 187500.0, 187500.0, 187500.0, 187500.0, 187500.0, 187500.0, 0.034, -0.024, 1.008, 192.0, 1.0, 16.0, 255.0, 64.0, 31.0, 128.0, 0.0, 0.0, 0.0, 1.6946820558161657E9, 0.0, 2023-09-14 11:00:55.816
18.0, -9.275973948952432, 187500.0, 187500.0, 187500.0, 187500.0, 187500.0, 187500.0, 187500.0, 0.034, -0.024, 1.008, 192.0, 0.0, 0.0, 0.0, 0.0, 0.0, 0.0, 0.0, 0.0, 0.0, 1.694682055816213E9, 0.0, 2023-09-14 11:00:55.816
19.0, -9.544194882416116, 187500.0, 187500.0, 187500.0, 187500.0, 187500.0, 187500.0, 187500.0, 0.034, -0.024, 1.008, 192.0, 0.0, 0.0, 0.0, 0.0, 0.0, 0.0, 0.0, 0.0, 0.0, 1.694682055816256E9, 0.0, 2023-09-14 11:00:55.816
20.0, -15.020372273966347, 187500.0, 187500.0, 187500.0, 187500.0, 187500.0, 187500.0, 187500.0, 0.034, -0.024, 1.008, 192.0, 0.0, 0.0, 0.0, 0.0, 0.0, 0.0, 0.0, 0.0, 0.0, 1.6946820558162985E9, 0.0, 2023-09-14 11:00:55.816
21.0, -34.30992773889634, 187500.0, 187500.0, 187500.0, 187500.0, 187500.0, 187500.0, 187500.0, 0.034, -0.024, 1.008, 192.0, 0.0, 0.0, 0.0, 0.0, 0.0, 0.0, 0.0, 0.0, 0.0, 1.6946820558163412E9, 0.0, 2023-09-14 11:00:55.816
22.0, -38.66851790768122, 187500.0, 187500.0, 187500.0, 187500.0, 187500.0, 187500.0, 187500.0, 0.034, -0.024, 1.008, 192.0, 0.0, 0.0, 0.0, 0.0, 0.0, 0.0, 0.0, 0.0, 0.0, 1.694682055816383E9, 0.0, 2023-09-14 11:00:55.816
23.0, -38.82498011886837, 187500.0, 187500.0, 187500.0, 187500.0, 187500.0, 187500.0, 187500.0, 0.034, -0.024, 1.008, 192.0, 0.0, 0.0, 0.0, 0.0, 0.0, 0.0, 0.0, 0.0, 0.0, 1.6946820558164413E9, 0.0, 2023-09-14 11:00:55.816
24.0, -33.751134127513666, 187500.0, 187500.0, 187500.0, 187500.0, 187500.0, 187500.0, 187500.0, 0.034, -0.024, 1.008, 192.0, 0.0, 0.0, 0.0, 0.0, 0.0, 0.0, 0.0, 0.0, 0.0, 1.6946820558164852E9, 0.0, 2023-09-14 11:00:55.816
25.0, -14.059247262388142, 187500.0, 187500.0, 187500.0, 187500.0, 187500.0, 187500.0, 187500.0, 0.034, -0.024, 1.008, 192.0, 0.0, 0.0, 0.0, 0.0, 0.0, 0.0, 0.0, 0.0, 0.0, 1.6946820558165288E9, 0.0, 2023-09-14 11:00:55.816
26.0, -9.477139649050194, 187500.0, 187500.0, 187500.0, 187500.0, 187500.0, 187500.0, 187500.0, 0.034, -0.024, 1.008, 192.0, 0.0, 0.0, 0.0, 0.0, 0.0, 0.0, 0.0, 0.0, 0.0, 1.694682055816572E9, 0.0, 2023-09-14 11:00:55.816
27.0, -9.365380926773659, 187500.0, 187500.0, 187500.0, 187500.0, 187500.0, 187500.0, 187500.0, 0.04, -0.024, 1.004, 192.0, 1.0, 64.0, 255.0, 64.0, 31.0, 96.0, 0.0, 0.0, 0.0, 1.6946820558166156E9, 0.0, 2023-09-14 11:00:55.816
28.0, -14.61804087377082, 187500.0, 187500.0, 187500.0, 187500.0, 187500.0, 187500.0, 187500.0, 0.04, -0.024, 1.004, 192.0, 0.0, 0.0, 0.0, 0.0, 0.0, 0.0, 0.0, 0.0, 0.0, 1.6946820558166616E9, 0.0, 2023-09-14 11:00:55.816
29.0, -34.600500416815336, 187500.0, 187500.0, 187500.0, 187500.0, 187500.0, 187500.0, 187500.0, 0.04, -0.024, 1.004, 192.0, 0.0, 0.0, 0.0, 0.0, 0.0, 0.0, 0.0, 0.0, 0.0, 1.6946820558167048E9, 0.0, 2023-09-14 11:00:55.816
30.0, -38.713221396591834, 187500.0, 187500.0, 187500.0, 187500.0, 187500.0, 187500.0, 187500.0, 0.04, -0.024, 1.004, 192.0, 0.0, 0.0, 0.0, 0.0, 0.0, 0.0, 0.0, 0.0, 0.0, 1.6946820558167477E9, 0.0, 2023-09-14 11:00:55.816
31.0, -38.69086965213653, 187500.0, 187500.0, 187500.0, 187500.0, 187500.0, 187500.0, 187500.0, 0.04, -0.024, 1.004, 192.0, 0.0, 0.0, 0.0, 0.0, 0.0, 0.0, 0.0, 0.0, 0.0, 1.6946820558169289E9, 0.0, 2023-09-14 11:00:55.816
32.0, -33.52761668296059, 187500.0, 187500.0, 187500.0, 187500.0, 187500.0, 187500.0, 187500.0, 0.04, -0.024, 1.004, 192.0, 0.0, 0.0, 0.0, 0.0, 0.0, 0.0, 0.0, 0.0, 0.0, 1.694682055816974E9, 0.0, 2023-09-14 11:00:55.816
33.0, -14.126302495754064, 187500.0, 187500.0, 187500.0, 187500.0, 187500.0, 187500.0, 187500.0, 0.04, -0.024, 1.004, 192.0, 0.0, 0.0, 0.0, 0.0, 0.0, 0.0, 0.0, 0.0, 0.0, 1.6946820558170173E9, 0.0, 2023-09-14 11:00:55.817
34.0, -9.231270460041817, 187500.0, 187500.0, 187500.0, 187500.0, 187500.0, 187500.0, 187500.0, 0.04, -0.024, 1.004, 192.0, 0.0, 0.0, 0.0, 0.0, 0.0, 0.0, 0.0, 0.0, 0.0, 1.6946820558170598E9, 0.0, 2023-09-14 11:00:55.817
35.0, -9.365380926773659, 187500.0, 187500.0, 187500.0, 187500.0, 187500.0, 187500.0, 187500.0, 0.04, -0.024, 1.004, 192.0, 0.0, 0.0, 0.0, 0.0, 0.0, 0.0, 0.0, 0.0, 0.0, 1.6946820558171024E9, 0.0, 2023-09-14 11:00:55.817
36.0, -14.975668785055731, 187500.0, 187500.0, 187500.0, 187500.0, 187500.0, 187500.0, 187500.0, 0.04, -0.024, 1.004, 192.0, 0.0, 0.0, 0.0, 0.0, 0.0, 0.0, 0.0, 0.0, 0.0, 1.694682055817145E9, 0.0, 2023-09-14 11:00:55.817
37.0, -34.287575994441035, 187500.0, 187500.0, 187500.0, 187500.0, 187500.0, 187500.0, 187500.0, 0.036000000000000004, -0.018000000000000002, 1.0, 192.0, 1.0, 32.0, 255.0, 112.0, 31.0, 64.0, 0.0, 0.0, 0.0, 1.6946820558171892E9, 0.0, 2023-09-14 11:00:55.817
38.0, -38.48970395203876, 187500.0, 187500.0, 187500.0, 187500.0, 187500.0, 187500.0, 187500.0, 0.036000000000000004, -0.018000000000000002, 1.0, 192.0, 0.0, 0.0, 0.0, 0.0, 0.0, 0.0, 0.0, 0.0, 0.0, 1.694682055817236E9, 0.0, 2023-09-14 11:00:55.817
39.0, -38.6014626743153, 187500.0, 187500.0, 187500.0, 187500.0, 187500.0, 187500.0, 187500.0, 0.036000000000000004, -0.018000000000000002, 1.0, 192.0, 0.0, 0.0, 0.0, 0.0, 0.0, 0.0, 0.0, 0.0, 0.0, 1.694682055817279E9, 0.0, 2023-09-14 11:00:55.817
40.0, -33.52761668296059, 187500.0, 187500.0, 187500.0, 187500.0, 187500.0, 187500.0, 187500.0, 0.036000000000000004, -0.018000000000000002, 1.0, 192.0, 0.0, 0.0, 0.0, 0.0, 0.0, 0.0, 0.0, 0.0, 0.0, 1.6946820558173225E9, 0.0, 2023-09-14 11:00:55.817
41.0, -13.746322840013844, 187500.0, 187500.0, 187500.0, 187500.0, 187500.0, 187500.0, 187500.0, 0.036000000000000004, -0.018000000000000002, 1.0, 192.0, 0.0, 0.0, 0.0, 0.0, 0.0, 0.0, 0.0, 0.0, 0.0, 1.6946820558173656E9, 0.0, 2023-09-14 11:00:55.817
42.0, -9.030104759944054, 187500.0, 187500.0, 187500.0, 187500.0, 187500.0, 187500.0, 187500.0, 0.036000000000000004, -0.018000000000000002, 1.0, 192.0, 0.0, 0.0, 0.0, 0.0, 0.0, 0.0, 0.0, 0.0, 0.0, 1.6946820558174095E9, 0.0, 2023-09-14 11:00:55.817
43.0, -9.141863482220588, 187500.0, 187500.0, 187500.0, 187500.0, 187500.0, 187500.0, 187500.0, 0.036000000000000004, -0.018000000000000002, 1.0, 192.0, 0.0, 0.0, 0.0, 0.0, 0.0, 0.0, 0.0, 0.0, 0.0, 1.694682055817473E9, 0.0, 2023-09-14 11:00:55.817
44.0, -14.640392618226127, 187500.0, 187500.0, 187500.0, 187500.0, 187500.0, 187500.0, 187500.0, 0.036000000000000004, -0.018000000000000002, 1.0, 192.0, 0.0, 0.0, 0.0, 0.0, 0.0, 0.0, 0.0, 0.0, 0.0, 1.694682055817529E9, 0.0, 2023-09-14 11:00:55.817
45.0, -34.24287250553042, 187500.0, 187500.0, 187500.0, 187500.0, 187500.0, 187500.0, 187500.0, 0.036000000000000004, -0.018000000000000002, 1.0, 192.0, 0.0, 0.0, 0.0, 0.0, 0.0, 0.0, 0.0, 0.0, 0.0, 1.6946820558175788E9, 0.0, 2023-09-14 11:00:55.817
46.0, -38.6014626743153, 187500.0, 187500.0, 187500.0, 187500.0, 187500.0, 187500.0, 187500.0, 0.036000000000000004, -0.018000000000000002, 1.0, 192.0, 0.0, 0.0, 0.0, 0.0, 0.0, 0.0, 0.0, 0.0, 0.0, 1.6946820558176293E9, 0.0, 2023-09-14 11:00:55.817
47.0, -38.914387096689595, 187500.0, 187500.0, 187500.0, 187500.0, 187500.0, 187500.0, 187500.0, 0.03, -0.02, 1.0, 192.0, 0.0, 240.0, 255.0, 96.0, 31.0, 64.0, 0.0, 0.0, 0.0, 1.694682055817855E9, 0.0, 2023-09-14 11:00:55.817
48.0, -33.684078894147746, 187500.0, 187500.0, 187500.0, 187500.0, 187500.0, 187500.0, 187500.0, 0.03, -0.02, 1.0, 192.0, 0.0, 0.0, 0.0, 0.0, 0.0, 0.0, 0.0, 0.0, 0.0, 1.6946820558179088E9, 0.0, 2023-09-14 11:00:55.817
49.0, -13.880433306745687, 187500.0, 187500.0, 187500.0, 187500.0, 187500.0, 187500.0, 187500.0, 0.03, -0.02, 1.0, 192.0, 0.0, 0.0, 0.0, 0.0, 0.0, 0.0, 0.0, 0.0, 0.0, 1.6946820558179576E9, 0.0, 2023-09-14 11:00:55.817
50.0, -9.275973948952432, 187500.0, 187500.0, 187500.0, 187500.0, 187500.0, 187500.0, 187500.0, 0.03, -0.02, 1.0, 192.0, 0.0, 0.0, 0.0, 0.0, 0.0, 0.0, 0.0, 0.0, 0.0, 1.6946820558180077E9, 0.0, 2023-09-14 11:00:55.818
51.0, -9.320677437863045, 187500.0, 187500.0, 187500.0, 187500.0, 187500.0, 187500.0, 187500.0, 0.03, -0.02, 1.0, 192.0, 0.0, 0.0, 0.0, 0.0, 0.0, 0.0, 0.0, 0.0, 0.0, 1.6946820558180585E9, 0.0, 2023-09-14 11:00:55.818
52.0, -14.394523429217749, 187500.0, 187500.0, 187500.0, 187500.0, 187500.0, 187500.0, 187500.0, 0.03, -0.02, 1.0, 192.0, 0.0, 0.0, 0.0, 0.0, 0.0, 0.0, 0.0, 0.0, 0.0, 1.6946820558181083E9, 0.0, 2023-09-14 11:00:55.818
53.0, -34.220520761075115, 187500.0, 187500.0, 187500.0, 187500.0, 187500.0, 187500.0, 187500.0, 0.03, -0.02, 1.0, 192.0, 0.0, 0.0, 0.0, 0.0, 0.0, 0.0, 0.0, 0.0, 0.0, 1.6946820558181589E9, 0.0, 2023-09-14 11:00:55.818
54.0, -38.86968360777898, 187500.0, 187500.0, 187500.0, 187500.0, 187500.0, 187500.0, 187500.0, 0.03, -0.02, 1.0, 192.0, 0.0, 0.0, 0.0, 0.0, 0.0, 0.0, 0.0, 0.0, 0.0, 1.6946820558182075E9, 0.0, 2023-09-14 11:00:55.818
55.0, -39.02614581896613, 187500.0, 187500.0, 187500.0, 187500.0, 187500.0, 187500.0, 187500.0, 0.03, -0.02, 1.0, 192.0, 0.0, 0.0, 0.0, 0.0, 0.0, 0.0, 0.0, 0.0, 0.0, 1.6946820558182564E9, 0.0, 2023-09-14 11:00:55.818
56.0, -33.617023660781825, 187500.0, 187500.0, 187500.0, 187500.0, 187500.0, 187500.0, 187500.0, 0.03, -0.02, 1.0, 192.0, 0.0, 0.0, 0.0, 0.0, 0.0, 0.0, 0.0, 0.0, 0.0, 1.6946820558183076E9, 0.0, 2023-09-14 11:00:55.818
57.0, -14.327468195851827, 187500.0, 187500.0, 187500.0, 187500.0, 187500.0, 187500.0, 187500.0, 0.03, -0.02, 0.998, 192.0, 0.0, 240.0, 255.0, 96.0, 31.0, 48.0, 0.0, 0.0, 0.0, 1.694682055818358E9, 0.0, 2023-09-14 11:00:55.818
58.0, -9.410084415684274, 187500.0, 187500.0, 187500.0, 187500.0, 187500.0, 187500.0, 187500.0, 0.03, -0.02, 0.998, 192.0, 0.0, 0.0, 0.0, 0.0, 0.0, 0.0, 0.0, 0.0, 0.0, 1.69468205581841E9, 0.0, 2023-09-14 11:00:55.818
59.0, -9.20891871558651, 187500.0, 187500.0, 187500.0, 187500.0, 187500.0, 187500.0, 187500.0, 0.03, -0.02, 0.998, 192.0, 0.0, 0.0, 0.0, 0.0, 0.0, 0.0, 0.0, 0.0, 0.0, 1.6946820558184776E9, 0.0, 2023-09-14 11:00:55.818
60.0, -14.61804087377082, 187500.0, 187500.0, 187500.0, 187500.0, 187500.0, 187500.0, 187500.0, 0.03, -0.02, 0.998, 192.0, 0.0, 0.0, 0.0, 0.0, 0.0, 0.0, 0.0, 0.0, 0.0, 1.6946820558185265E9, 0.0, 2023-09-14 11:00:55.818
61.0, -34.24287250553042, 187500.0, 187500.0, 187500.0, 187500.0, 187500.0, 187500.0, 187500.0, 0.03, -0.02, 0.998, 192.0, 0.0, 0.0, 0.0, 0.0, 0.0, 0.0, 0.0, 0.0, 0.0, 1.6946820558185718E9, 0.0, 2023-09-14 11:00:55.818
62.0, -38.713221396591834, 187500.0, 187500.0, 187500.0, 187500.0, 187500.0, 187500.0, 187500.0, 0.03, -0.02, 0.998, 192.0, 0.0, 0.0, 0.0, 0.0, 0.0, 0.0, 0.0, 0.0, 0.0, 1.6946820558186839E9, 0.0, 2023-09-14 11:00:55.818
63.0, -38.646166163225914, 187500.0, 187500.0, 187500.0, 187500.0, 187500.0, 187500.0, 187500.0, 0.03, -0.02, 0.998, 192.0, 0.0, 0.0, 0.0, 0.0, 0.0, 0.0, 0.0, 0.0, 0.0, 1.6946820558187256E9, 0.0, 2023-09-14 11:00:55.818
64.0, -33.92994808315612, 187500.0, 187500.0, 187500.0, 187500.0, 187500.0, 187500.0, 187500.0, 0.03, -0.02, 0.998, 192.0, 0.0, 0.0, 0.0, 0.0, 0.0, 0.0, 0.0, 0.0, 0.0, 1.6946820558187745E9, 0.0, 2023-09-14 11:00:55.818
65.0, -14.260412962485907, 187500.0, 187500.0, 187500.0, 187500.0, 187500.0, 187500.0, 187500.0, 0.03, -0.02, 0.998, 192.0, 0.0, 0.0, 0.0, 0.0, 0.0, 0.0, 0.0, 0.0, 0.0, 1.694682055818837E9, 0.0, 2023-09-14 11:00:55.818
66.0, -9.20891871558651, 187500.0, 187500.0, 187500.0, 187500.0, 187500.0, 187500.0, 187500.0, 0.03, -0.02, 0.998, 192.0, 0.0, 0.0, 0.0, 0.0, 0.0, 0.0, 0.0, 0.0, 0.0, 1.694682055818886E9, 0.0, 2023-09-14 11:00:55.818
67.0, -9.119511737765281, 187500.0, 187500.0, 187500.0, 187500.0, 187500.0, 187500.0, 187500.0, 0.034, -0.02, 1.002, 192.0, 1.0, 16.0, 255.0, 96.0, 31.0, 80.0, 0.0, 0.0, 0.0, 1.6946820558189356E9, 0.0, 2023-09-14 11:00:55.818
68.0, -14.774503084957969, 187500.0, 187500.0, 187500.0, 187500.0, 187500.0, 187500.0, 187500.0, 0.034, -0.02, 1.002, 192.0, 0.0, 0.0, 0.0, 0.0, 0.0, 0.0, 0.0, 0.0, 0.0, 1.694682055818987E9, 0.0, 2023-09-14 11:00:55.818
69.0, -34.62285216127064, 187500.0, 187500.0, 187500.0, 187500.0, 187500.0, 187500.0, 187500.0, 0.034, -0.02, 1.002, 192.0, 0.0, 0.0, 0.0, 0.0, 0.0, 0.0, 0.0, 0.0, 0.0, 1.694682055819034E9, 0.0, 2023-09-14 11:00:55.819
70.0, -38.82498011886837, 187500.0, 187500.0, 187500.0, 187500.0, 187500.0, 187500.0, 187500.0, 0.034, -0.02, 1.002, 192.0, 0.0, 0.0, 0.0, 0.0, 0.0, 0.0, 0.0, 0.0, 0.0, 1.6946820558190808E9, 0.0, 2023-09-14 11:00:55.819
71.0, -38.69086965213653, 187500.0, 187500.0, 187500.0, 187500.0, 187500.0, 187500.0, 187500.0, 0.034, -0.02, 1.002, 192.0, 0.0, 0.0, 0.0, 0.0, 0.0, 0.0, 0.0, 0.0, 0.0, 1.6946820558191276E9, 0.0, 2023-09-14 11:00:55.819
72.0, -33.304099238407524, 187500.0, 187500.0, 187500.0, 187500.0, 187500.0, 187500.0, 187500.0, 0.034, -0.02, 1.002, 192.0, 0.0, 0.0, 0.0, 0.0, 0.0, 0.0, 0.0, 0.0, 0.0, 1.6946820558191748E9, 0.0, 2023-09-14 11:00:55.819
73.0, -13.880433306745687, 187500.0, 187500.0, 187500.0, 187500.0, 187500.0, 187500.0, 187500.0, 0.034, -0.02, 1.002, 192.0, 0.0, 0.0, 0.0, 0.0, 0.0, 0.0, 0.0, 0.0, 0.0, 1.694682055819222E9, 0.0, 2023-09-14 11:00:55.819
74.0, -9.857119304790414, 187500.0, 187500.0, 187500.0, 187500.0, 187500.0, 187500.0, 187500.0, 0.034, -0.02, 1.002, 192.0, 0.0, 0.0, 0.0, 0.0, 0.0, 0.0, 0.0, 0.0, 0.0, 1.69468205581927E9, 0.0, 2023-09-14 11:00:55.819
75.0, -9.544194882416116, 187500.0, 187500.0, 187500.0, 187500.0, 187500.0, 187500.0, 187500.0, 0.034, -0.02, 1.002, 192.0, 0.0, 0.0, 0.0, 0.0, 0.0, 0.0, 0.0, 0.0, 0.0, 1.694682055819318E9, 0.0, 2023-09-14 11:00:55.819
76.0, -14.595689129315511, 187500.0, 187500.0, 187500.0, 187500.0, 187500.0, 187500.0, 187500.0, 0.034, -0.02, 1.002, 192.0, 0.0, 0.0, 0.0, 0.0, 0.0, 0.0, 0.0, 0.0, 0.0, 1.6946820558193645E9, 0.0, 2023-09-14 11:00:55.819
77.0, -34.01935506097735, 187500.0, 187500.0, 187500.0, 187500.0, 187500.0, 187500.0, 187500.0, 0.028, -0.022, 1.008, 192.0, 0.0, 224.0, 255.0, 80.0, 31.0, 128.0, 0.0, 0.0, 0.0, 1.6946820558194115E9, 0.0, 2023-09-14 11:00:55.819
78.0, -38.6014626743153, 187500.0, 187500.0, 187500.0, 187500.0, 187500.0, 187500.0, 187500.0, 0.028, -0.022, 1.008, 192.0, 0.0, 0.0, 0.0, 0.0, 0.0, 0.0, 0.0, 0.0, 0.0, 1.6946820558195348E9, 0.0, 2023-09-14 11:00:55.819
79.0, -38.914387096689595, 187500.0, 187500.0, 187500.0, 187500.0, 187500.0, 187500.0, 187500.0, 0.028, -0.022, 1.008, 192.0, 0.0, 0.0, 0.0, 0.0, 0.0, 0.0, 0.0, 0.0, 0.0, 1.694682055819584E9, 0.0, 2023-09-14 11:00:55.819
80.0, -33.92994808315612, 187500.0, 187500.0, 187500.0, 187500.0, 187500.0, 187500.0, 187500.0, 0.028, -0.022, 1.008, 192.0, 0.0, 0.0, 0.0, 0.0, 0.0, 0.0, 0.0, 0.0, 0.0, 1.6946820558196328E9, 0.0, 2023-09-14 11:00:55.819
81.0, -14.215709473575291, 187500.0, 187500.0, 187500.0, 187500.0, 187500.0, 187500.0, 187500.0, 0.028, -0.022, 1.008, 192.0, 0.0, 0.0, 0.0, 0.0, 0.0, 0.0, 0.0, 0.0, 0.0, 1.69468205581968E9, 0.0, 2023-09-14 11:00:55.819
82.0, -9.186566971131203, 187500.0, 187500.0, 187500.0, 187500.0, 187500.0, 187500.0, 187500.0, 0.028, -0.022, 1.008, 192.0, 0.0, 0.0, 0.0, 0.0, 0.0, 0.0, 0.0, 0.0, 0.0, 1.6946820558197277E9, 0.0, 2023-09-14 11:00:55.819
83.0, -9.253622204497123, 187500.0, 187500.0, 187500.0, 187500.0, 187500.0, 187500.0, 187500.0, 0.028, -0.022, 1.008, 192.0, 0.0, 0.0, 0.0, 0.0, 0.0, 0.0, 0.0, 0.0, 0.0, 1.694682055819775E9, 0.0, 2023-09-14 11:00:55.819
84.0, -14.729799596047354, 187500.0, 187500.0, 187500.0, 187500.0, 187500.0, 187500.0, 187500.0, 0.028, -0.022, 1.008, 192.0, 0.0, 0.0, 0.0, 0.0, 0.0, 0.0, 0.0, 0.0, 0.0, 1.6946820558198223E9, 0.0, 2023-09-14 11:00:55.819
85.0, -34.24287250553042, 187500.0, 187500.0, 187500.0, 187500.0, 187500.0, 187500.0, 187500.0, 0.028, -0.022, 1.008, 192.0, 0.0, 0.0, 0.0, 0.0, 0.0, 0.0, 0.0, 0.0, 0.0, 1.6946820558198693E9, 0.0, 2023-09-14 11:00:55.819
86.0, -38.6014626743153, 187500.0, 187500.0, 187500.0, 187500.0, 187500.0, 187500.0, 187500.0, 0.028, -0.022, 1.008, 192.0, 0.0, 0.0, 0.0, 0.0, 0.0, 0.0, 0.0, 0.0, 0.0, 1.6946820558199162E9, 0.0, 2023-09-14 11:00:55.819
87.0, -38.914387096689595, 187500.0, 187500.0, 187500.0, 187500.0, 187500.0, 187500.0, 187500.0, 0.032, -0.02, 1.006, 192.0, 1.0, 0.0, 255.0, 96.0, 31.0, 112.0, 0.0, 0.0, 0.0, 1.6946820558199685E9, 0.0, 2023-09-14 11:00:55.819
88.0, -33.572320171871205, 187500.0, 187500.0, 187500.0, 187500.0, 187500.0, 187500.0, 187500.0, 0.032, -0.02, 1.006, 192.0, 0.0, 0.0, 0.0, 0.0, 0.0, 0.0, 0.0, 0.0, 0.0, 1.6946820558200188E9, 0.0, 2023-09-14 11:00:55.820
89.0, -14.260412962485907, 187500.0, 187500.0, 187500.0, 187500.0, 187500.0, 187500.0, 187500.0, 0.032, -0.02, 1.006, 192.0, 0.0, 0.0, 0.0, 0.0, 0.0, 0.0, 0.0, 0.0, 0.0, 1.6946820558200665E9, 0.0, 2023-09-14 11:00:55.820
90.0, -9.410084415684274, 187500.0, 187500.0, 187500.0, 187500.0, 187500.0, 187500.0, 187500.0, 0.032, -0.02, 1.006, 192.0, 0.0, 0.0, 0.0, 0.0, 0.0, 0.0, 0.0, 0.0, 0.0, 1.6946820558201144E9, 0.0, 2023-09-14 11:00:55.820
91.0, -9.186566971131203, 187500.0, 187500.0, 187500.0, 187500.0, 187500.0, 187500.0, 187500.0, 0.032, -0.02, 1.006, 192.0, 0.0, 0.0, 0.0, 0.0, 0.0, 0.0, 0.0, 0.0, 0.0, 1.6946820558201606E9, 0.0, 2023-09-14 11:00:55.820
92.0, -14.595689129315511, 187500.0, 187500.0, 187500.0, 187500.0, 187500.0, 187500.0, 187500.0, 0.032, -0.02, 1.006, 192.0, 0.0, 0.0, 0.0, 0.0, 0.0, 0.0, 0.0, 0.0, 0.0, 1.694682055820209E9, 0.0, 2023-09-14 11:00:55.820
93.0, -34.33227948335165, 187500.0, 187500.0, 187500.0, 187500.0, 187500.0, 187500.0, 187500.0, 0.032, -0.02, 1.006, 192.0, 0.0, 0.0, 0.0, 0.0, 0.0, 0.0, 0.0, 0.0, 0.0, 1.6946820558203387E9, 0.0, 2023-09-14 11:00:55.820
94.0, -39.18260803015328, 187500.0, 187500.0, 187500.0, 187500.0, 187500.0, 187500.0, 187500.0, 0.032, -0.02, 1.006, 192.0, 0.0, 0.0, 0.0, 0.0, 0.0, 0.0, 0.0, 0.0, 0.0, 1.6946820558203876E9, 0.0, 2023-09-14 11:00:55.820
95.0, -39.13790454124267, 187500.0, 187500.0, 187500.0, 187500.0, 187500.0, 187500.0, 187500.0, 0.032, -0.02, 1.006, 192.0, 0.0, 0.0, 0.0, 0.0, 0.0, 0.0, 0.0, 0.0, 0.0, 1.6946820558204508E9, 0.0, 2023-09-14 11:00:55.820
96.0, -33.39350621622875, 187500.0, 187500.0, 187500.0, 187500.0, 187500.0, 187500.0, 187500.0, 0.032, -0.02, 1.006, 192.0, 0.0, 0.0, 0.0, 0.0, 0.0, 0.0, 0.0, 0.0, 0.0, 1.6946820558204925E9, 0.0, 2023-09-14 11:00:55.820
97.0, -13.835729817835071, 187500.0, 187500.0, 187500.0, 187500.0, 187500.0, 187500.0, 187500.0, 0.03, -0.02, 1.006, 192.0, 0.0, 240.0, 255.0, 96.0, 31.0, 112.0, 0.0, 0.0, 0.0, 1.6946820558205352E9, 0.0, 2023-09-14 11:00:55.820
98.0, -9.253622204497123, 187500.0, 187500.0, 187500.0, 187500.0, 187500.0, 187500.0, 187500.0, 0.03, -0.02, 1.006, 192.0, 0.0, 0.0, 0.0, 0.0, 0.0, 0.0, 0.0, 0.0, 0.0, 1.694682055820583E9, 0.0, 2023-09-14 11:00:55.820
99.0, -9.611250115782036, 187500.0, 187500.0, 187500.0, 187500.0, 187500.0, 187500.0, 187500.0, 0.03, -0.02, 1.006, 192.0, 0.0, 0.0, 0.0, 0.0, 0.0, 0.0, 0.0, 0.0, 0.0, 1.6946820558206267E9, 0.0, 2023-09-14 11:00:55.820
100.0, -14.99802052951104, 187500.0, 187500.0, 187500.0, 187500.0, 187500.0, 187500.0, 187500.0, 0.03, -0.02, 1.006, 192.0, 0.0, 0.0, 0.0, 0.0, 0.0, 0.0, 0.0, 0.0, 0.0, 1.694682055820672E9, 0.0, 2023-09-14 11:00:55.820
101.0, -34.220520761075115, 187500.0, 187500.0, 187500.0, 187500.0, 187500.0, 187500.0, 187500.0, 0.03, -0.02, 1.006, 192.0, 0.0, 0.0, 0.0, 0.0, 0.0, 0.0, 0.0, 0.0, 0.0, 1.694682055820716E9, 0.0, 2023-09-14 11:00:55.820
102.0, -38.53440744094937, 187500.0, 187500.0, 187500.0, 187500.0, 187500.0, 187500.0, 187500.0, 0.03, -0.02, 1.006, 192.0, 0.0, 0.0, 0.0, 0.0, 0.0, 0.0, 0.0, 0.0, 0.0, 1.6946820558207617E9, 0.0, 2023-09-14 11:00:55.820
103.0, -39.160256285697976, 187500.0, 187500.0, 187500.0, 187500.0, 187500.0, 187500.0, 187500.0, 0.03, -0.02, 1.006, 192.0, 0.0, 0.0, 0.0, 0.0, 0.0, 0.0, 0.0, 0.0, 0.0, 1.6946820558208094E9, 0.0, 2023-09-14 11:00:55.820
104.0, -34.086410294343274, 187500.0, 187500.0, 187500.0, 187500.0, 187500.0, 187500.0, 187500.0, 0.03, -0.02, 1.006, 192.0, 0.0, 0.0, 0.0, 0.0, 0.0, 0.0, 0.0, 0.0, 0.0, 1.694682055820854E9, 0.0, 2023-09-14 11:00:55.820
105.0, -14.282764706941213, 187500.0, 187500.0, 187500.0, 187500.0, 187500.0, 187500.0, 187500.0, 0.03, -0.02, 1.006, 192.0, 0.0, 0.0, 0.0, 0.0, 0.0, 0.0, 0.0, 0.0, 0.0, 1.694682055820897E9, 0.0, 2023-09-14 11:00:55.820
106.0, -9.231270460041817, 187500.0, 187500.0, 187500.0, 187500.0, 187500.0, 187500.0, 187500.0, 0.03, -0.02, 1.006, 192.0, 0.0, 0.0, 0.0, 0.0, 0.0, 0.0, 0.0, 0.0, 0.0, 1.6946820558209405E9, 0.0, 2023-09-14 11:00:55.820
107.0, -9.43243616013958, 187500.0, 187500.0, 187500.0, 187500.0, 187500.0, 187500.0, 187500.0, 0.03, -0.022, 1.004, 192.0, 0.0, 240.0, 255.0, 80.0, 31.0, 96.0, 0.0, 0.0, 0.0, 1.6946820558209832E9, 0.0, 2023-09-14 11:00:55.820
108.0, -14.61804087377082, 187500.0, 187500.0, 187500.0, 187500.0, 187500.0, 187500.0, 187500.0, 0.03, -0.022, 1.004, 192.0, 0.0, 0.0, 0.0, 0.0, 0.0, 0.0, 0.0, 0.0, 0.0, 1.6946820558210952E9, 0.0, 2023-09-14 11:00:55.821
109.0, -34.46638995008349, 187500.0, 187500.0, 187500.0, 187500.0, 187500.0, 187500.0, 187500.0, 0.03, -0.022, 1.004, 192.0, 0.0, 0.0, 0.0, 0.0, 0.0, 0.0, 0.0, 0.0, 0.0, 1.6946820558211393E9, 0.0, 2023-09-14 11:00:55.821
110.0, -39.00379407451082, 187500.0, 187500.0, 187500.0, 187500.0, 187500.0, 187500.0, 187500.0, 0.03, -0.022, 1.004, 192.0, 0.0, 0.0, 0.0, 0.0, 0.0, 0.0, 0.0, 0.0, 0.0, 1.694682055821183E9, 0.0, 2023-09-14 11:00:55.821
111.0, -39.02614581896613, 187500.0, 187500.0, 187500.0, 187500.0, 187500.0, 187500.0, 187500.0, 0.03, -0.022, 1.004, 192.0, 0.0, 0.0, 0.0, 0.0, 0.0, 0.0, 0.0, 0.0, 0.0, 1.6946820558212306E9, 0.0, 2023-09-14 11:00:55.821
112.0, -33.59467191632652, 187500.0, 187500.0, 187500.0, 187500.0, 187500.0, 187500.0, 187500.0, 0.03, -0.022, 1.004, 192.0, 0.0, 0.0, 0.0, 0.0, 0.0, 0.0, 0.0, 0.0, 0.0, 1.6946820558212829E9, 0.0, 2023-09-14 11:00:55.821
113.0, -13.791026328924458, 187500.0, 187500.0, 187500.0, 187500.0, 187500.0, 187500.0, 187500.0, 0.03, -0.022, 1.004, 192.0, 0.0, 0.0, 0.0, 0.0, 0.0, 0.0, 0.0, 0.0, 0.0, 1.6946820558213315E9, 0.0, 2023-09-14 11:00:55.821
114.0, -9.320677437863045, 187500.0, 187500.0, 187500.0, 187500.0, 187500.0, 187500.0, 187500.0, 0.03, -0.022, 1.004, 192.0, 0.0, 0.0, 0.0, 0.0, 0.0, 0.0, 0.0, 0.0, 0.0, 1.6946820558213792E9, 0.0, 2023-09-14 11:00:55.821
115.0, -9.58889837132673, 187500.0, 187500.0, 187500.0, 187500.0, 187500.0, 187500.0, 187500.0, 0.03, -0.022, 1.004, 192.0, 0.0, 0.0, 0.0, 0.0, 0.0, 0.0, 0.0, 0.0, 0.0, 1.6946820558214247E9, 0.0, 2023-09-14 11:00:55.821
116.0, -14.729799596047354, 187500.0, 187500.0, 187500.0, 187500.0, 187500.0, 187500.0, 187500.0, 0.03, -0.022, 1.004, 192.0, 0.0, 0.0, 0.0, 0.0, 0.0, 0.0, 0.0, 0.0, 0.0, 1.694682055821519E9, 0.0, 2023-09-14 11:00:55.821
117.0, -34.53344518344941, 187500.0, 187500.0, 187500.0, 187500.0, 187500.0, 187500.0, 187500.0, 0.028, -0.024, 0.996, 192.0, 0.0, 224.0, 255.0, 64.0, 31.0, 32.0, 0.0, 0.0, 0.0, 1.694682055821564E9, 0.0, 2023-09-14 11:00:55.821
118.0, -38.80262837441306, 187500.0, 187500.0, 187500.0, 187500.0, 187500.0, 187500.0, 187500.0, 0.028, -0.024, 0.996, 192.0, 0.0, 0.0, 0.0, 0.0, 0.0, 0.0, 0.0, 0.0, 0.0, 1.6946820558216093E9, 0.0, 2023-09-14 11:00:55.821
119.0, -38.914387096689595, 187500.0, 187500.0, 187500.0, 187500.0, 187500.0, 187500.0, 187500.0, 0.028, -0.024, 0.996, 192.0, 0.0, 0.0, 0.0, 0.0, 0.0, 0.0, 0.0, 0.0, 0.0, 1.6946820558216662E9, 0.0, 2023-09-14 11:00:55.821
120.0, -33.617023660781825, 187500.0, 187500.0, 187500.0, 187500.0, 187500.0, 187500.0, 187500.0, 0.028, -0.024, 0.996, 192.0, 0.0, 0.0, 0.0, 0.0, 0.0, 0.0, 0.0, 0.0, 0.0, 1.6946820558217268E9, 0.0, 2023-09-14 11:00:55.821
121.0, -14.059247262388142, 187500.0, 187500.0, 187500.0, 187500.0, 187500.0, 187500.0, 187500.0, 0.028, -0.024, 0.996, 192.0, 0.0, 0.0, 0.0, 0.0, 0.0, 0.0, 0.0, 0.0, 0.0, 1.6946820562958524E9, 0.0, 2023-09-14 11:00:56.295
122.0, -9.410084415684274, 187500.0, 187500.0, 187500.0, 187500.0, 187500.0, 187500.0, 187500.0, 0.028, -0.024, 0.996, 192.0, 0.0, 0.0, 0.0, 0.0, 0.0, 0.0, 0.0, 0.0, 0.0, 1.6946820562960074E9, 0.0, 2023-09-14 11:00:56.296
123.0, -9.52184313796081, 187500.0, 187500.0, 187500.0, 187500.0, 187500.0, 187500.0, 187500.0, 0.028, -0.024, 0.996, 192.0, 0.0, 0.0, 0.0, 0.0, 0.0, 0.0, 0.0, 0.0, 0.0, 1.6946820562960856E9, 0.0, 2023-09-14 11:00:56.296
124.0, -14.930965296145118, 187500.0, 187500.0, 187500.0, 187500.0, 187500.0, 187500.0, 187500.0, 0.028, -0.024, 0.996, 192.0, 0.0, 0.0, 0.0, 0.0, 0.0, 0.0, 0.0, 0.0, 0.0, 1.6946820562962985E9, 0.0, 2023-09-14 11:00:56.296
125.0, -34.71225913909187, 187500.0, 187500.0, 187500.0, 187500.0, 187500.0, 187500.0, 187500.0, 0.028, -0.024, 0.996, 192.0, 0.0, 0.0, 0.0, 0.0, 0.0, 0.0, 0.0, 0.0, 0.0, 1.694682056296348E9, 0.0, 2023-09-14 11:00:56.296
126.0, -38.75792488550245, 187500.0, 187500.0, 187500.0, 187500.0, 187500.0, 187500.0, 187500.0, 0.028, -0.024, 0.996, 192.0, 0.0, 0.0, 0.0, 0.0, 0.0, 0.0, 0.0, 0.0, 0.0, 1.6946820562963955E9, 0.0, 2023-09-14 11:00:56.296
127.0, -38.57911092985999, 187500.0, 187500.0, 187500.0, 187500.0, 187500.0, 187500.0, 187500.0, 0.034, -0.024, 1.004, 192.0, 1.0, 16.0, 255.0, 64.0, 31.0, 96.0, 0.0, 0.0, 0.0, 1.6946820562964408E9, 0.0, 2023-09-14 11:00:56.296
128.0, -33.34880272731814, 187500.0, 187500.0, 187500.0, 187500.0, 187500.0, 187500.0, 187500.0, 0.034, -0.024, 1.004, 192.0, 0.0, 0.0, 0.0, 0.0, 0.0, 0.0, 0.0, 0.0, 0.0, 1.6946820562964945E9, 0.0, 2023-09-14 11:00:56.296
129.0, -14.215709473575291, 187500.0, 187500.0, 187500.0, 187500.0, 187500.0, 187500.0, 187500.0, 0.034, -0.024, 1.004, 192.0, 0.0, 0.0, 0.0, 0.0, 0.0, 0.0, 0.0, 0.0, 0.0, 1.694682056296549E9, 0.0, 2023-09-14 11:00:56.296
130.0, -9.700657093603265, 187500.0, 187500.0, 187500.0, 187500.0, 187500.0, 187500.0, 187500.0, 0.034, -0.024, 1.004, 192.0, 0.0, 0.0, 0.0, 0.0, 0.0, 0.0, 0.0, 0.0, 0.0, 1.6946820562965953E9, 0.0, 2023-09-14 11:00:56.296
131.0, -9.655953604692652, 187500.0, 187500.0, 187500.0, 187500.0, 187500.0, 187500.0, 187500.0, 0.034, -0.024, 1.004, 192.0, 0.0, 0.0, 0.0, 0.0, 0.0, 0.0, 0.0, 0.0, 0.0, 1.694682056296639E9, 0.0, 2023-09-14 11:00:56.296
132.0, -14.61804087377082, 187500.0, 187500.0, 187500.0, 187500.0, 187500.0, 187500.0, 187500.0, 0.034, -0.024, 1.004, 192.0, 0.0, 0.0, 0.0, 0.0, 0.0, 0.0, 0.0, 0.0, 0.0, 1.694682056296688E9, 0.0, 2023-09-14 11:00:56.296
133.0, -34.153465527709194, 187500.0, 187500.0, 187500.0, 187500.0, 187500.0, 187500.0, 187500.0, 0.034, -0.024, 1.004, 192.0, 0.0, 0.0, 0.0, 0.0, 0.0, 0.0, 0.0, 0.0, 0.0, 1.694682056296736E9, 0.0, 2023-09-14 11:00:56.296
134.0, -38.9367388411449, 187500.0, 187500.0, 187500.0, 187500.0, 187500.0, 187500.0, 187500.0, 0.034, -0.024, 1.004, 192.0, 0.0, 0.0, 0.0, 0.0, 0.0, 0.0, 0.0, 0.0, 0.0, 1.6946820562967825E9, 0.0, 2023-09-14 11:00:56.296
135.0, -39.27201500797451, 187500.0, 187500.0, 187500.0, 187500.0, 187500.0, 187500.0, 187500.0, 0.034, -0.024, 1.004, 192.0, 0.0, 0.0, 0.0, 0.0, 0.0, 0.0, 0.0, 0.0, 0.0, 1.694682056296828E9, 0.0, 2023-09-14 11:00:56.296
136.0, -33.97465157206673, 187500.0, 187500.0, 187500.0, 187500.0, 187500.0, 187500.0, 187500.0, 0.034, -0.026000000000000002, 1.0, 192.0, 1.0, 16.0, 255.0, 48.0, 31.0, 64.0, 0.0, 0.0, 0.0, 1.6946820562968743E9, 0.0, 2023-09-14 11:00:56.296
137.0, -14.327468195851827, 187500.0, 187500.0, 187500.0, 187500.0, 187500.0, 187500.0, 187500.0, 0.034, -0.026000000000000002, 1.0, 192.0, 0.0, 0.0, 0.0, 0.0, 0.0, 0.0, 0.0, 0.0, 0.0, 1.6946820562969255E9, 0.0, 2023-09-14 11:00:56.296
138.0, -9.655953604692652, 187500.0, 187500.0, 187500.0, 187500.0, 187500.0, 187500.0, 187500.0, 0.034, -0.026000000000000002, 1.0, 192.0, 0.0, 0.0, 0.0, 0.0, 0.0, 0.0, 0.0, 0.0, 0.0, 1.6946820562969766E9, 0.0, 2023-09-14 11:00:56.296
139.0, -9.767712326969187, 187500.0, 187500.0, 187500.0, 187500.0, 187500.0, 187500.0, 187500.0, 0.034, -0.026000000000000002, 1.0, 192.0, 0.0, 0.0, 0.0, 0.0, 0.0, 0.0, 0.0, 0.0, 0.0, 1.6946820562971568E9, 0.0, 2023-09-14 11:00:56.297
140.0, -14.930965296145118, 187500.0, 187500.0, 187500.0, 187500.0, 187500.0, 187500.0, 187500.0, 0.034, -0.026000000000000002, 1.0, 192.0, 0.0, 0.0, 0.0, 0.0, 0.0, 0.0, 0.0, 0.0, 0.0, 1.6946820562972064E9, 0.0, 2023-09-14 11:00:56.297
141.0, -34.39933471671757, 187500.0, 187500.0, 187500.0, 187500.0, 187500.0, 187500.0, 187500.0, 0.034, -0.026000000000000002, 1.0, 192.0, 0.0, 0.0, 0.0, 0.0, 0.0, 0.0, 0.0, 0.0, 0.0, 1.6946820562972608E9, 0.0, 2023-09-14 11:00:56.297
142.0, -38.981442330055515, 187500.0, 187500.0, 187500.0, 187500.0, 187500.0, 187500.0, 187500.0, 0.034, -0.026000000000000002, 1.0, 192.0, 0.0, 0.0, 0.0, 0.0, 0.0, 0.0, 0.0, 0.0, 0.0, 1.6946820562973075E9, 0.0, 2023-09-14 11:00:56.297
143.0, -39.227311519063896, 187500.0, 187500.0, 187500.0, 187500.0, 187500.0, 187500.0, 187500.0, 0.034, -0.026000000000000002, 1.0, 192.0, 0.0, 0.0, 0.0, 0.0, 0.0, 0.0, 0.0, 0.0, 0.0, 1.6946820562973547E9, 0.0, 2023-09-14 11:00:56.297
144.0, -33.79583761642428, 187500.0, 187500.0, 187500.0, 187500.0, 187500.0, 187500.0, 187500.0, 0.034, -0.026000000000000002, 1.0, 192.0, 0.0, 0.0, 0.0, 0.0, 0.0, 0.0, 0.0, 0.0, 0.0, 1.6946820562974007E9, 0.0, 2023-09-14 11:00:56.297
145.0, -14.171005984664678, 187500.0, 187500.0, 187500.0, 187500.0, 187500.0, 187500.0, 187500.0, 0.034, -0.026000000000000002, 1.0, 192.0, 0.0, 0.0, 0.0, 0.0, 0.0, 0.0, 0.0, 0.0, 0.0, 1.694682056297452E9, 0.0, 2023-09-14 11:00:56.297
146.0, -9.767712326969187, 187500.0, 187500.0, 187500.0, 187500.0, 187500.0, 187500.0, 187500.0, 0.03, -0.024, 1.004, 192.0, 0.0, 240.0, 255.0, 64.0, 31.0, 96.0, 0.0, 0.0, 0.0, 1.6946820562975028E9, 0.0, 2023-09-14 11:00:56.297
147.0, -9.097159993309974, 187500.0, 187500.0, 187500.0, 187500.0, 187500.0, 187500.0, 187500.0, 0.03, -0.024, 1.004, 192.0, 0.0, 0.0, 0.0, 0.0, 0.0, 0.0, 0.0, 0.0, 0.0, 1.6946820562975504E9, 0.0, 2023-09-14 11:00:56.297
148.0, -14.372171684762442, 187500.0, 187500.0, 187500.0, 187500.0, 187500.0, 187500.0, 187500.0, 0.03, -0.024, 1.004, 192.0, 0.0, 0.0, 0.0, 0.0, 0.0, 0.0, 0.0, 0.0, 0.0, 1.6946820562975984E9, 0.0, 2023-09-14 11:00:56.297
149.0, -34.73461088354718, 187500.0, 187500.0, 187500.0, 187500.0, 187500.0, 187500.0, 187500.0, 0.03, -0.024, 1.004, 192.0, 0.0, 0.0, 0.0, 0.0, 0.0, 0.0, 0.0, 0.0, 0.0, 1.6946820562976427E9, 0.0, 2023-09-14 11:00:56.297
150.0, -39.227311519063896, 187500.0, 187500.0, 187500.0, 187500.0, 187500.0, 187500.0, 187500.0, 0.03, -0.024, 1.004, 192.0, 0.0, 0.0, 0.0, 0.0, 0.0, 0.0, 0.0, 0.0, 0.0, 1.6946820562976844E9, 0.0, 2023-09-14 11:00:56.297
151.0, -38.80262837441306, 187500.0, 187500.0, 187500.0, 187500.0, 187500.0, 187500.0, 187500.0, 0.03, -0.024, 1.004, 192.0, 0.0, 0.0, 0.0, 0.0, 0.0, 0.0, 0.0, 0.0, 0.0, 1.6946820562977264E9, 0.0, 2023-09-14 11:00:56.297
152.0, -33.505264938505285, 187500.0, 187500.0, 187500.0, 187500.0, 187500.0, 187500.0, 187500.0, 0.03, -0.024, 1.004, 192.0, 0.0, 0.0, 0.0, 0.0, 0.0, 0.0, 0.0, 0.0, 0.0, 1.6946820562977705E9, 0.0, 2023-09-14 11:00:56.297
153.0, -14.349819940307134, 187500.0, 187500.0, 187500.0, 187500.0, 187500.0, 187500.0, 187500.0, 0.03, -0.024, 1.004, 192.0, 0.0, 0.0, 0.0, 0.0, 0.0, 0.0, 0.0, 0.0, 0.0, 1.6946820562978156E9, 0.0, 2023-09-14 11:00:56.297
154.0, -9.633601860237343, 187500.0, 187500.0, 187500.0, 187500.0, 187500.0, 187500.0, 187500.0, 0.03, -0.024, 1.004, 192.0, 0.0, 0.0, 0.0, 0.0, 0.0, 0.0, 0.0, 0.0, 0.0, 1.694682056297914E9, 0.0, 2023-09-14 11:00:56.297
155.0, -9.320677437863045, 187500.0, 187500.0, 187500.0, 187500.0, 187500.0, 187500.0, 187500.0, 0.03, -0.024, 1.004, 192.0, 0.0, 0.0, 0.0, 0.0, 0.0, 0.0, 0.0, 0.0, 0.0, 1.694682056297959E9, 0.0, 2023-09-14 11:00:56.297
156.0, -14.863910062779196, 187500.0, 187500.0, 187500.0, 187500.0, 187500.0, 187500.0, 187500.0, 0.032, -0.022, 1.004, 192.0, 1.0, 0.0, 255.0, 80.0, 31.0, 96.0, 0.0, 0.0, 0.0, 1.6946820562980063E9, 0.0, 2023-09-14 11:00:56.298
157.0, -34.77931437245779, 187500.0, 187500.0, 187500.0, 187500.0, 187500.0, 187500.0, 187500.0, 0.032, -0.022, 1.004, 192.0, 0.0, 0.0, 0.0, 0.0, 0.0, 0.0, 0.0, 0.0, 0.0, 1.6946820562980611E9, 0.0, 2023-09-14 11:00:56.298
158.0, -38.847331863323674, 187500.0, 187500.0, 187500.0, 187500.0, 187500.0, 187500.0, 187500.0, 0.032, -0.022, 1.004, 192.0, 0.0, 0.0, 0.0, 0.0, 0.0, 0.0, 0.0, 0.0, 0.0, 1.6946820562981052E9, 0.0, 2023-09-14 11:00:56.298
159.0, -38.847331863323674, 187500.0, 187500.0, 187500.0, 187500.0, 187500.0, 187500.0, 187500.0, 0.032, -0.022, 1.004, 192.0, 0.0, 0.0, 0.0, 0.0, 0.0, 0.0, 0.0, 0.0, 0.0, 1.6946820562981472E9, 0.0, 2023-09-14 11:00:56.298
160.0, -33.684078894147746, 187500.0, 187500.0, 187500.0, 187500.0, 187500.0, 187500.0, 187500.0, 0.032, -0.022, 1.004, 192.0, 0.0, 0.0, 0.0, 0.0, 0.0, 0.0, 0.0, 0.0, 0.0, 1.694682056298191E9, 0.0, 2023-09-14 11:00:56.298
161.0, -14.08159900684345, 187500.0, 187500.0, 187500.0, 187500.0, 187500.0, 187500.0, 187500.0, 0.032, -0.022, 1.004, 192.0, 0.0, 0.0, 0.0, 0.0, 0.0, 0.0, 0.0, 0.0, 0.0, 1.694682056298248E9, 0.0, 2023-09-14 11:00:56.298
162.0, -9.8124158158798, 187500.0, 187500.0, 187500.0, 187500.0, 187500.0, 187500.0, 187500.0, 0.032, -0.022, 1.004, 192.0, 0.0, 0.0, 0.0, 0.0, 0.0, 0.0, 0.0, 0.0, 0.0, 1.694682056298296E9, 0.0, 2023-09-14 11:00:56.298
163.0, -9.58889837132673, 187500.0, 187500.0, 187500.0, 187500.0, 187500.0, 187500.0, 187500.0, 0.032, -0.022, 1.004, 192.0, 0.0, 0.0, 0.0, 0.0, 0.0, 0.0, 0.0, 0.0, 0.0, 1.694682056298341E9, 0.0, 2023-09-14 11:00:56.298
164.0, -15.020372273966347, 187500.0, 187500.0, 187500.0, 187500.0, 187500.0, 187500.0, 187500.0, 0.032, -0.022, 1.004, 192.0, 0.0, 0.0, 0.0, 0.0, 0.0, 0.0, 0.0, 0.0, 0.0, 1.694682056298386E9, 0.0, 2023-09-14 11:00:56.298
165.0, -34.5110934389941, 187500.0, 187500.0, 187500.0, 187500.0, 187500.0, 187500.0, 187500.0, 0.032, -0.022, 1.004, 192.0, 0.0, 0.0, 0.0, 0.0, 0.0, 0.0, 0.0, 0.0, 0.0, 1.6946820562984314E9, 0.0, 2023-09-14 11:00:56.298
166.0, -38.981442330055515, 187500.0, 187500.0, 187500.0, 187500.0, 187500.0, 187500.0, 187500.0, 0.03, -0.018000000000000002, 1.008, 192.0, 0.0, 240.0, 255.0, 112.0, 31.0, 128.0, 0.0, 0.0, 0.0, 1.6946820562984748E9, 0.0, 2023-09-14 11:00:56.298
167.0, -38.6014626743153, 187500.0, 187500.0, 187500.0, 187500.0, 187500.0, 187500.0, 187500.0, 0.03, -0.018000000000000002, 1.008, 192.0, 0.0, 0.0, 0.0, 0.0, 0.0, 0.0, 0.0, 0.0, 0.0, 1.6946820562985198E9, 0.0, 2023-09-14 11:00:56.298
168.0, -33.46056144959467, 187500.0, 187500.0, 187500.0, 187500.0, 187500.0, 187500.0, 187500.0, 0.03, -0.018000000000000002, 1.008, 192.0, 0.0, 0.0, 0.0, 0.0, 0.0, 0.0, 0.0, 0.0, 0.0, 1.6946820562985663E9, 0.0, 2023-09-14 11:00:56.298
169.0, -13.768674584469151, 187500.0, 187500.0, 187500.0, 187500.0, 187500.0, 187500.0, 187500.0, 0.03, -0.018000000000000002, 1.008, 192.0, 0.0, 0.0, 0.0, 0.0, 0.0, 0.0, 0.0, 0.0, 0.0, 1.6946820562986116E9, 0.0, 2023-09-14 11:00:56.298
170.0, -9.253622204497123, 187500.0, 187500.0, 187500.0, 187500.0, 187500.0, 187500.0, 187500.0, 0.03, -0.018000000000000002, 1.008, 192.0, 0.0, 0.0, 0.0, 0.0, 0.0, 0.0, 0.0, 0.0, 0.0, 1.694682056298729E9, 0.0, 2023-09-14 11:00:56.298
171.0, -9.454787904594887, 187500.0, 187500.0, 187500.0, 187500.0, 187500.0, 187500.0, 187500.0, 0.03, -0.018000000000000002, 1.008, 192.0, 0.0, 0.0, 0.0, 0.0, 0.0, 0.0, 0.0, 0.0, 0.0, 1.6946820562987728E9, 0.0, 2023-09-14 11:00:56.298
172.0, -14.908613551689811, 187500.0, 187500.0, 187500.0, 187500.0, 187500.0, 187500.0, 187500.0, 0.03, -0.018000000000000002, 1.008, 192.0, 0.0, 0.0, 0.0, 0.0, 0.0, 0.0, 0.0, 0.0, 0.0, 1.6946820562988179E9, 0.0, 2023-09-14 11:00:56.298
173.0, -34.66755565018126, 187500.0, 187500.0, 187500.0, 187500.0, 187500.0, 187500.0, 187500.0, 0.03, -0.018000000000000002, 1.008, 192.0, 0.0, 0.0, 0.0, 0.0, 0.0, 0.0, 0.0, 0.0, 0.0, 1.6946820562988667E9, 0.0, 2023-09-14 11:00:56.298
174.0, -38.9367388411449, 187500.0, 187500.0, 187500.0, 187500.0, 187500.0, 187500.0, 187500.0, 0.03, -0.018000000000000002, 1.008, 192.0, 0.0, 0.0, 0.0, 0.0, 0.0, 0.0, 0.0, 0.0, 0.0, 1.6946820562989116E9, 0.0, 2023-09-14 11:00:56.298
175.0, -38.981442330055515, 187500.0, 187500.0, 187500.0, 187500.0, 187500.0, 187500.0, 187500.0, 0.03, -0.018000000000000002, 1.008, 192.0, 0.0, 0.0, 0.0, 0.0, 0.0, 0.0, 0.0, 0.0, 0.0, 1.694682056298955E9, 0.0, 2023-09-14 11:00:56.298
176.0, -33.885244594245506, 187500.0, 187500.0, 187500.0, 187500.0, 187500.0, 187500.0, 187500.0, 0.03, -0.018000000000000002, 1.008, 192.0, 0.0, 240.0, 255.0, 112.0, 31.0, 128.0, 0.0, 0.0, 0.0, 1.694682056299009E9, 0.0, 2023-09-14 11:00:56.299
177.0, -14.059247262388142, 187500.0, 187500.0, 187500.0, 187500.0, 187500.0, 187500.0, 187500.0, 0.03, -0.018000000000000002, 1.008, 192.0, 0.0, 0.0, 0.0, 0.0, 0.0, 0.0, 0.0, 0.0, 0.0, 1.6946820562990572E9, 0.0, 2023-09-14 11:00:56.299
178.0, -9.410084415684274, 187500.0, 187500.0, 187500.0, 187500.0, 187500.0, 187500.0, 187500.0, 0.03, -0.018000000000000002, 1.008, 192.0, 0.0, 0.0, 0.0, 0.0, 0.0, 0.0, 0.0, 0.0, 0.0, 1.6946820562991116E9, 0.0, 2023-09-14 11:00:56.299
179.0, -9.43243616013958, 187500.0, 187500.0, 187500.0, 187500.0, 187500.0, 187500.0, 187500.0, 0.03, -0.018000000000000002, 1.008, 192.0, 0.0, 0.0, 0.0, 0.0, 0.0, 0.0, 0.0, 0.0, 0.0, 1.6946820562991655E9, 0.0, 2023-09-14 11:00:56.299
180.0, -15.020372273966347, 187500.0, 187500.0, 187500.0, 187500.0, 187500.0, 187500.0, 187500.0, 0.03, -0.018000000000000002, 1.008, 192.0, 0.0, 0.0, 0.0, 0.0, 0.0, 0.0, 0.0, 0.0, 0.0, 1.6946820562992384E9, 0.0, 2023-09-14 11:00:56.299
181.0, -34.5110934389941, 187500.0, 187500.0, 187500.0, 187500.0, 187500.0, 187500.0, 187500.0, 0.03, -0.018000000000000002, 1.008, 192.0, 0.0, 0.0, 0.0, 0.0, 0.0, 0.0, 0.0, 0.0, 0.0, 1.6946820562992852E9, 0.0, 2023-09-14 11:00:56.299
182.0, -38.82498011886837, 187500.0, 187500.0, 187500.0, 187500.0, 187500.0, 187500.0, 187500.0, 0.03, -0.018000000000000002, 1.008, 192.0, 0.0, 0.0, 0.0, 0.0, 0.0, 0.0, 0.0, 0.0, 0.0, 1.6946820562993288E9, 0.0, 2023-09-14 11:00:56.299
183.0, -38.981442330055515, 187500.0, 187500.0, 187500.0, 187500.0, 187500.0, 187500.0, 187500.0, 0.03, -0.018000000000000002, 1.008, 192.0, 0.0, 0.0, 0.0, 0.0, 0.0, 0.0, 0.0, 0.0, 0.0, 1.6946820562993724E9, 0.0, 2023-09-14 11:00:56.299
184.0, -34.1758172721645, 187500.0, 187500.0, 187500.0, 187500.0, 187500.0, 187500.0, 187500.0, 0.03, -0.018000000000000002, 1.008, 192.0, 0.0, 0.0, 0.0, 0.0, 0.0, 0.0, 0.0, 0.0, 0.0, 1.694682056299416E9, 0.0, 2023-09-14 11:00:56.299
185.0, -14.193357729119985, 187500.0, 187500.0, 187500.0, 187500.0, 187500.0, 187500.0, 187500.0, 0.03, -0.018000000000000002, 1.008, 192.0, 0.0, 0.0, 0.0, 0.0, 0.0, 0.0, 0.0, 0.0, 0.0, 1.6946820562995143E9, 0.0, 2023-09-14 11:00:56.299
186.0, -9.477139649050194, 187500.0, 187500.0, 187500.0, 187500.0, 187500.0, 187500.0, 187500.0, 0.03, -0.02, 1.006, 192.0, 0.0, 240.0, 255.0, 96.0, 31.0, 112.0, 0.0, 0.0, 0.0, 1.6946820562995603E9, 0.0, 2023-09-14 11:00:56.299
187.0, -9.410084415684274, 187500.0, 187500.0, 187500.0, 187500.0, 187500.0, 187500.0, 187500.0, 0.03, -0.02, 1.006, 192.0, 0.0, 0.0, 0.0, 0.0, 0.0, 0.0, 0.0, 0.0, 0.0, 1.6946820562996075E9, 0.0, 2023-09-14 11:00:56.299
188.0, -14.640392618226127, 187500.0, 187500.0, 187500.0, 187500.0, 187500.0, 187500.0, 187500.0, 0.03, -0.02, 1.006, 192.0, 0.0, 0.0, 0.0, 0.0, 0.0, 0.0, 0.0, 0.0, 0.0, 1.694682056299652E9, 0.0, 2023-09-14 11:00:56.299
189.0, -34.488741694538795, 187500.0, 187500.0, 187500.0, 187500.0, 187500.0, 187500.0, 187500.0, 0.03, -0.02, 1.006, 192.0, 0.0, 0.0, 0.0, 0.0, 0.0, 0.0, 0.0, 0.0, 0.0, 1.6946820562996967E9, 0.0, 2023-09-14 11:00:56.299
190.0, -38.80262837441306, 187500.0, 187500.0, 187500.0, 187500.0, 187500.0, 187500.0, 187500.0, 0.03, -0.02, 1.006, 192.0, 0.0, 0.0, 0.0, 0.0, 0.0, 0.0, 0.0, 0.0, 0.0, 1.6946820562997415E9, 0.0, 2023-09-14 11:00:56.299
191.0, -38.82498011886837, 187500.0, 187500.0, 187500.0, 187500.0, 187500.0, 187500.0, 187500.0, 0.03, -0.02, 1.006, 192.0, 0.0, 0.0, 0.0, 0.0, 0.0, 0.0, 0.0, 0.0, 0.0, 1.694682056299786E9, 0.0, 2023-09-14 11:00:56.299
192.0, -33.72878238305836, 187500.0, 187500.0, 187500.0, 187500.0, 187500.0, 187500.0, 187500.0, 0.03, -0.02, 1.006, 192.0, 0.0, 0.0, 0.0, 0.0, 0.0, 0.0, 0.0, 0.0, 0.0, 1.6946820562998307E9, 0.0, 2023-09-14 11:00:56.299
193.0, -14.394523429217749, 187500.0, 187500.0, 187500.0, 187500.0, 187500.0, 187500.0, 187500.0, 0.03, -0.02, 1.006, 192.0, 0.0, 0.0, 0.0, 0.0, 0.0, 0.0, 0.0, 0.0, 0.0, 1.6946820562998767E9, 0.0, 2023-09-14 11:00:56.299
194.0, -9.298325693407739, 187500.0, 187500.0, 187500.0, 187500.0, 187500.0, 187500.0, 187500.0, 0.03, -0.02, 1.006, 192.0, 0.0, 0.0, 0.0, 0.0, 0.0, 0.0, 0.0, 0.0, 0.0, 1.6946820562999215E9, 0.0, 2023-09-14 11:00:56.299
195.0, -9.410084415684274, 187500.0, 187500.0, 187500.0, 187500.0, 187500.0, 187500.0, 187500.0, 0.03, -0.02, 1.006, 192.0, 0.0, 0.0, 0.0, 0.0, 0.0, 0.0, 0.0, 0.0, 0.0, 1.6946820562999668E9, 0.0, 2023-09-14 11:00:56.299
196.0, -14.930965296145118, 187500.0, 187500.0, 187500.0, 187500.0, 187500.0, 187500.0, 187500.0, 0.036000000000000004, -0.022, 1.006, 192.0, 1.0, 32.0, 255.0, 80.0, 31.0, 112.0, 0.0, 0.0, 0.0, 1.6946820563000114E9, 0.0, 2023-09-14 11:00:56.300
197.0, -34.5110934389941, 187500.0, 187500.0, 187500.0, 187500.0, 187500.0, 187500.0, 187500.0, 0.036000000000000004, -0.022, 1.006, 192.0, 0.0, 0.0, 0.0, 0.0, 0.0, 0.0, 0.0, 0.0, 0.0, 1.6946820563000584E9, 0.0, 2023-09-14 11:00:56.300
198.0, -38.75792488550245, 187500.0, 187500.0, 187500.0, 187500.0, 187500.0, 187500.0, 187500.0, 0.036000000000000004, -0.022, 1.006, 192.0, 0.0, 0.0, 0.0, 0.0, 0.0, 0.0, 0.0, 0.0, 0.0, 1.694682056300102E9, 0.0, 2023-09-14 11:00:56.300
199.0, -38.914387096689595, 187500.0, 187500.0, 187500.0, 187500.0, 187500.0, 187500.0, 187500.0, 0.036000000000000004, -0.022, 1.006, 192.0, 0.0, 0.0, 0.0, 0.0, 0.0, 0.0, 0.0, 0.0, 0.0, 1.6946820563001466E9, 0.0, 2023-09-14 11:00:56.300
200.0, -33.95229982761143, 187500.0, 187500.0, 187500.0, 187500.0, 187500.0, 187500.0, 187500.0, 0.036000000000000004, -0.022, 1.006, 192.0, 0.0, 0.0, 0.0, 0.0, 0.0, 0.0, 0.0, 0.0, 0.0, 1.6946820563002436E9, 0.0, 2023-09-14 11:00:56.300
201.0, -14.282764706941213, 187500.0, 187500.0, 187500.0, 187500.0, 187500.0, 187500.0, 187500.0, 0.036000000000000004, -0.022, 1.006, 192.0, 0.0, 0.0, 0.0, 0.0, 0.0, 0.0, 0.0, 0.0, 0.0, 1.6946820563002903E9, 0.0, 2023-09-14 11:00:56.300
202.0, -9.52184313796081, 187500.0, 187500.0, 187500.0, 187500.0, 187500.0, 187500.0, 187500.0, 0.036000000000000004, -0.022, 1.006, 192.0, 0.0, 0.0, 0.0, 0.0, 0.0, 0.0, 0.0, 0.0, 0.0, 1.6946820563003347E9, 0.0, 2023-09-14 11:00:56.300
203.0, -9.410084415684274, 187500.0, 187500.0, 187500.0, 187500.0, 187500.0, 187500.0, 187500.0, 0.036000000000000004, -0.022, 1.006, 192.0, 0.0, 0.0, 0.0, 0.0, 0.0, 0.0, 0.0, 0.0, 0.0, 1.6946820563003788E9, 0.0, 2023-09-14 11:00:56.300
204.0, -14.68509610713674, 187500.0, 187500.0, 187500.0, 187500.0, 187500.0, 187500.0, 187500.0, 0.036000000000000004, -0.022, 1.006, 192.0, 0.0, 0.0, 0.0, 0.0, 0.0, 0.0, 0.0, 0.0, 0.0, 1.6946820563004231E9, 0.0, 2023-09-14 11:00:56.300
205.0, -34.33227948335165, 187500.0, 187500.0, 187500.0, 187500.0, 187500.0, 187500.0, 187500.0, 0.036000000000000004, -0.022, 1.006, 192.0, 0.0, 0.0, 0.0, 0.0, 0.0, 0.0, 0.0, 0.0, 0.0, 1.6946820563004675E9, 0.0, 2023-09-14 11:00:56.300
206.0, -39.160256285697976, 187500.0, 187500.0, 187500.0, 187500.0, 187500.0, 187500.0, 187500.0, 0.036000000000000004, -0.024, 1.002, 192.0, 1.0, 32.0, 255.0, 64.0, 31.0, 80.0, 0.0, 0.0, 0.0, 1.6946820563005118E9, 0.0, 2023-09-14 11:00:56.300
207.0, -38.82498011886837, 187500.0, 187500.0, 187500.0, 187500.0, 187500.0, 187500.0, 187500.0, 0.036000000000000004, -0.024, 1.002, 192.0, 0.0, 0.0, 0.0, 0.0, 0.0, 0.0, 0.0, 0.0, 0.0, 1.6946820563005583E9, 0.0, 2023-09-14 11:00:56.300
208.0, -33.72878238305836, 187500.0, 187500.0, 187500.0, 187500.0, 187500.0, 187500.0, 187500.0, 0.036000000000000004, -0.024, 1.002, 192.0, 0.0, 0.0, 0.0, 0.0, 0.0, 0.0, 0.0, 0.0, 0.0, 1.694682056300603E9, 0.0, 2023-09-14 11:00:56.300
209.0, -14.550985640404898, 187500.0, 187500.0, 187500.0, 187500.0, 187500.0, 187500.0, 187500.0, 0.036000000000000004, -0.024, 1.002, 192.0, 0.0, 0.0, 0.0, 0.0, 0.0, 0.0, 0.0, 0.0, 0.0, 1.6946820563006473E9, 0.0, 2023-09-14 11:00:56.300
210.0, -9.499491393505501, 187500.0, 187500.0, 187500.0, 187500.0, 187500.0, 187500.0, 187500.0, 0.036000000000000004, -0.024, 1.002, 192.0, 0.0, 0.0, 0.0, 0.0, 0.0, 0.0, 0.0, 0.0, 0.0, 1.6946820563006914E9, 0.0, 2023-09-14 11:00:56.300
211.0, -9.52184313796081, 187500.0, 187500.0, 187500.0, 187500.0, 187500.0, 187500.0, 187500.0, 0.036000000000000004, -0.024, 1.002, 192.0, 0.0, 0.0, 0.0, 0.0, 0.0, 0.0, 0.0, 0.0, 0.0, 1.6946820563007357E9, 0.0, 2023-09-14 11:00:56.300
212.0, -14.752151340502662, 187500.0, 187500.0, 187500.0, 187500.0, 187500.0, 187500.0, 187500.0, 0.036000000000000004, -0.024, 1.002, 192.0, 0.0, 0.0, 0.0, 0.0, 0.0, 0.0, 0.0, 0.0, 0.0, 1.6946820563007798E9, 0.0, 2023-09-14 11:00:56.300
213.0, -34.8016661169131, 187500.0, 187500.0, 187500.0, 187500.0, 187500.0, 187500.0, 187500.0, 0.036000000000000004, -0.024, 1.002, 192.0, 0.0, 0.0, 0.0, 0.0, 0.0, 0.0, 0.0, 0.0, 0.0, 1.694682056300824E9, 0.0, 2023-09-14 11:00:56.300
214.0, -39.02614581896613, 187500.0, 187500.0, 187500.0, 187500.0, 187500.0, 187500.0, 187500.0, 0.036000000000000004, -0.024, 1.002, 192.0, 0.0, 0.0, 0.0, 0.0, 0.0, 0.0, 0.0, 0.0, 0.0, 1.6946820563008685E9, 0.0, 2023-09-14 11:00:56.300
215.0, -39.160256285697976, 187500.0, 187500.0, 187500.0, 187500.0, 187500.0, 187500.0, 187500.0, 0.036000000000000004, -0.024, 1.002, 192.0, 0.0, 0.0, 0.0, 0.0, 0.0, 0.0, 0.0, 0.0, 0.0, 1.6946820563009558E9, 0.0, 2023-09-14 11:00:56.300
216.0, -33.572320171871205, 187500.0, 187500.0, 187500.0, 187500.0, 187500.0, 187500.0, 187500.0, 0.034, -0.024, 1.006, 192.0, 1.0, 16.0, 255.0, 64.0, 31.0, 112.0, 0.0, 0.0, 0.0, 1.6946820563009987E9, 0.0, 2023-09-14 11:00:56.300
217.0, -13.9251367956563, 187500.0, 187500.0, 187500.0, 187500.0, 187500.0, 187500.0, 187500.0, 0.034, -0.024, 1.006, 192.0, 0.0, 0.0, 0.0, 0.0, 0.0, 0.0, 0.0, 0.0, 0.0, 1.6946820563010516E9, 0.0, 2023-09-14 11:00:56.301
218.0, -9.365380926773659, 187500.0, 187500.0, 187500.0, 187500.0, 187500.0, 187500.0, 187500.0, 0.034, -0.024, 1.006, 192.0, 0.0, 0.0, 0.0, 0.0, 0.0, 0.0, 0.0, 0.0, 0.0, 1.694682056301097E9, 0.0, 2023-09-14 11:00:56.301
219.0, -9.611250115782036, 187500.0, 187500.0, 187500.0, 187500.0, 187500.0, 187500.0, 187500.0, 0.034, -0.024, 1.006, 192.0, 0.0, 0.0, 0.0, 0.0, 0.0, 0.0, 0.0, 0.0, 0.0, 1.694682056301142E9, 0.0, 2023-09-14 11:00:56.301
220.0, -14.662744362681433, 187500.0, 187500.0, 187500.0, 187500.0, 187500.0, 187500.0, 187500.0, 0.034, -0.024, 1.006, 192.0, 0.0, 0.0, 0.0, 0.0, 0.0, 0.0, 0.0, 0.0, 0.0, 1.6946820563011897E9, 0.0, 2023-09-14 11:00:56.301
221.0, -34.26522424998573, 187500.0, 187500.0, 187500.0, 187500.0, 187500.0, 187500.0, 187500.0, 0.034, -0.024, 1.006, 192.0, 0.0, 0.0, 0.0, 0.0, 0.0, 0.0, 0.0, 0.0, 0.0, 1.6946820563012433E9, 0.0, 2023-09-14 11:00:56.301
222.0, -38.646166163225914, 187500.0, 187500.0, 187500.0, 187500.0, 187500.0, 187500.0, 187500.0, 0.034, -0.024, 1.006, 192.0, 0.0, 0.0, 0.0, 0.0, 0.0, 0.0, 0.0, 0.0, 0.0, 1.6946820563012948E9, 0.0, 2023-09-14 11:00:56.301
223.0, -38.62381441877061, 187500.0, 187500.0, 187500.0, 187500.0, 187500.0, 187500.0, 187500.0, 0.034, -0.024, 1.006, 192.0, 0.0, 0.0, 0.0, 0.0, 0.0, 0.0, 0.0, 0.0, 0.0, 1.6946820563013391E9, 0.0, 2023-09-14 11:00:56.301
224.0, -33.505264938505285, 187500.0, 187500.0, 187500.0, 187500.0, 187500.0, 187500.0, 187500.0, 0.034, -0.024, 1.006, 192.0, 0.0, 0.0, 0.0, 0.0, 0.0, 0.0, 0.0, 0.0, 0.0, 1.694682056301386E9, 0.0, 2023-09-14 11:00:56.301
225.0, -14.68509610713674, 187500.0, 187500.0, 187500.0, 187500.0, 187500.0, 187500.0, 187500.0, 0.034, -0.024, 1.006, 192.0, 0.0, 0.0, 0.0, 0.0, 0.0, 0.0, 0.0, 0.0, 0.0, 1.6946820563014343E9, 0.0, 2023-09-14 11:00:56.301
226.0, -9.633601860237343, 187500.0, 187500.0, 187500.0, 187500.0, 187500.0, 187500.0, 187500.0, 0.036000000000000004, -0.026000000000000002, 1.004, 192.0, 1.0, 32.0, 255.0, 48.0, 31.0, 96.0, 0.0, 0.0, 0.0, 1.6946820563014798E9, 0.0, 2023-09-14 11:00:56.301
227.0, -9.320677437863045, 187500.0, 187500.0, 187500.0, 187500.0, 187500.0, 187500.0, 187500.0, 0.036000000000000004, -0.026000000000000002, 1.004, 192.0, 0.0, 0.0, 0.0, 0.0, 0.0, 0.0, 0.0, 0.0, 0.0, 1.6946820563015313E9, 0.0, 2023-09-14 11:00:56.301
228.0, -14.774503084957969, 187500.0, 187500.0, 187500.0, 187500.0, 187500.0, 187500.0, 187500.0, 0.036000000000000004, -0.026000000000000002, 1.004, 192.0, 0.0, 0.0, 0.0, 0.0, 0.0, 0.0, 0.0, 0.0, 0.0, 1.6946820563015816E9, 0.0, 2023-09-14 11:00:56.301
229.0, -34.68990739463656, 187500.0, 187500.0, 187500.0, 187500.0, 187500.0, 187500.0, 187500.0, 0.036000000000000004, -0.026000000000000002, 1.004, 192.0, 0.0, 0.0, 0.0, 0.0, 0.0, 0.0, 0.0, 0.0, 0.0, 1.6946820563016224E9, 0.0, 2023-09-14 11:00:56.301
230.0, -39.38377373025104, 187500.0, 187500.0, 187500.0, 187500.0, 187500.0, 187500.0, 187500.0, 0.036000000000000004, -0.026000000000000002, 1.004, 192.0, 0.0, 0.0, 0.0, 0.0, 0.0, 0.0, 0.0, 0.0, 0.0, 1.6946820563016624E9, 0.0, 2023-09-14 11:00:56.301
231.0, -39.02614581896613, 187500.0, 187500.0, 187500.0, 187500.0, 187500.0, 187500.0, 187500.0, 0.036000000000000004, -0.026000000000000002, 1.004, 192.0, 0.0, 0.0, 0.0, 0.0, 0.0, 0.0, 0.0, 0.0, 0.0, 1.6946820563017688E9, 0.0, 2023-09-14 11:00:56.301
232.0, -33.63937540523713, 187500.0, 187500.0, 187500.0, 187500.0, 187500.0, 187500.0, 187500.0, 0.036000000000000004, -0.026000000000000002, 1.004, 192.0, 0.0, 0.0, 0.0, 0.0, 0.0, 0.0, 0.0, 0.0, 0.0, 1.6946820563018124E9, 0.0, 2023-09-14 11:00:56.301
233.0, -13.969840284566914, 187500.0, 187500.0, 187500.0, 187500.0, 187500.0, 187500.0, 187500.0, 0.036000000000000004, -0.026000000000000002, 1.004, 192.0, 0.0, 0.0, 0.0, 0.0, 0.0, 0.0, 0.0, 0.0, 0.0, 1.6946820563018556E9, 0.0, 2023-09-14 11:00:56.301
234.0, -9.074808248854668, 187500.0, 187500.0, 187500.0, 187500.0, 187500.0, 187500.0, 187500.0, 0.036000000000000004, -0.026000000000000002, 1.004, 192.0, 0.0, 0.0, 0.0, 0.0, 0.0, 0.0, 0.0, 0.0, 0.0, 1.694682056301901E9, 0.0, 2023-09-14 11:00:56.301
235.0, -9.499491393505501, 187500.0, 187500.0, 187500.0, 187500.0, 187500.0, 187500.0, 187500.0, 0.036000000000000004, -0.026000000000000002, 1.004, 192.0, 0.0, 0.0, 0.0, 0.0, 0.0, 0.0, 0.0, 0.0, 0.0, 1.694682056301944E9, 0.0, 2023-09-14 11:00:56.301
236.0, -14.662744362681433, 187500.0, 187500.0, 187500.0, 187500.0, 187500.0, 187500.0, 187500.0, 0.028, -0.024, 1.008, 192.0, 0.0, 224.0, 255.0, 64.0, 31.0, 128.0, 0.0, 0.0, 0.0, 1.6946820563019912E9, 0.0, 2023-09-14 11:00:56.301
237.0, -33.84054110533489, 187500.0, 187500.0, 187500.0, 187500.0, 187500.0, 187500.0, 187500.0, 0.028, -0.024, 1.008, 192.0, 0.0, 0.0, 0.0, 0.0, 0.0, 0.0, 0.0, 0.0, 0.0, 1.6946820563020415E9, 0.0, 2023-09-14 11:00:56.302
238.0, -38.75792488550245, 187500.0, 187500.0, 187500.0, 187500.0, 187500.0, 187500.0, 187500.0, 0.028, -0.024, 1.008, 192.0, 0.0, 0.0, 0.0, 0.0, 0.0, 0.0, 0.0, 0.0, 0.0, 1.6946820563020842E9, 0.0, 2023-09-14 11:00:56.302
239.0, -39.00379407451082, 187500.0, 187500.0, 187500.0, 187500.0, 187500.0, 187500.0, 187500.0, 0.028, -0.024, 1.008, 192.0, 0.0, 0.0, 0.0, 0.0, 0.0, 0.0, 0.0, 0.0, 0.0, 1.6946820563021257E9, 0.0, 2023-09-14 11:00:56.302
240.0, -33.90759633870081, 187500.0, 187500.0, 187500.0, 187500.0, 187500.0, 187500.0, 187500.0, 0.028, -0.024, 1.008, 192.0, 0.0, 0.0, 0.0, 0.0, 0.0, 0.0, 0.0, 0.0, 0.0, 1.6946820563021672E9, 0.0, 2023-09-14 11:00:56.302
241.0, -14.238061218030598, 187500.0, 187500.0, 187500.0, 187500.0, 187500.0, 187500.0, 187500.0, 0.028, -0.024, 1.008, 192.0, 0.0, 0.0, 0.0, 0.0, 0.0, 0.0, 0.0, 0.0, 0.0, 1.6946820567768223E9, 0.0, 2023-09-14 11:00:56.776
242.0, -9.611250115782036, 187500.0, 187500.0, 187500.0, 187500.0, 187500.0, 187500.0, 187500.0, 0.028, -0.024, 1.008, 192.0, 0.0, 0.0, 0.0, 0.0, 0.0, 0.0, 0.0, 0.0, 0.0, 1.6946820567769568E9, 0.0, 2023-09-14 11:00:56.776
243.0, -9.275973948952432, 187500.0, 187500.0, 187500.0, 187500.0, 187500.0, 187500.0, 187500.0, 0.028, -0.024, 1.008, 192.0, 0.0, 0.0, 0.0, 0.0, 0.0, 0.0, 0.0, 0.0, 0.0, 1.694682056777026E9, 0.0, 2023-09-14 11:00:56.777
244.0, -14.796854829413276, 187500.0, 187500.0, 187500.0, 187500.0, 187500.0, 187500.0, 187500.0, 0.028, -0.024, 1.008, 192.0, 0.0, 0.0, 0.0, 0.0, 0.0, 0.0, 0.0, 0.0, 0.0, 1.6946820567770848E9, 0.0, 2023-09-14 11:00:56.777
245.0, -34.555796927904716, 187500.0, 187500.0, 187500.0, 187500.0, 187500.0, 187500.0, 187500.0, 0.032, -0.026000000000000002, 1.002, 192.0, 1.0, 0.0, 255.0, 48.0, 31.0, 80.0, 0.0, 0.0, 0.0, 1.694682056777134E9, 0.0, 2023-09-14 11:00:56.777
246.0, -38.780276629957754, 187500.0, 187500.0, 187500.0, 187500.0, 187500.0, 187500.0, 187500.0, 0.032, -0.026000000000000002, 1.002, 192.0, 0.0, 0.0, 0.0, 0.0, 0.0, 0.0, 0.0, 0.0, 0.0, 1.694682056777259E9, 0.0, 2023-09-14 11:00:56.777
247.0, -38.646166163225914, 187500.0, 187500.0, 187500.0, 187500.0, 187500.0, 187500.0, 187500.0, 0.032, -0.026000000000000002, 1.002, 192.0, 0.0, 0.0, 0.0, 0.0, 0.0, 0.0, 0.0, 0.0, 0.0, 1.694682056777306E9, 0.0, 2023-09-14 11:00:56.777
248.0, -33.97465157206673, 187500.0, 187500.0, 187500.0, 187500.0, 187500.0, 187500.0, 187500.0, 0.032, -0.026000000000000002, 1.002, 192.0, 0.0, 0.0, 0.0, 0.0, 0.0, 0.0, 0.0, 0.0, 0.0, 1.69468205677735E9, 0.0, 2023-09-14 11:00:56.777
249.0, -14.416875173673056, 187500.0, 187500.0, 187500.0, 187500.0, 187500.0, 187500.0, 187500.0, 0.032, -0.026000000000000002, 1.002, 192.0, 0.0, 0.0, 0.0, 0.0, 0.0, 0.0, 0.0, 0.0, 0.0, 1.6946820567773924E9, 0.0, 2023-09-14 11:00:56.777
250.0, -9.700657093603265, 187500.0, 187500.0, 187500.0, 187500.0, 187500.0, 187500.0, 187500.0, 0.032, -0.026000000000000002, 1.002, 192.0, 0.0, 0.0, 0.0, 0.0, 0.0, 0.0, 0.0, 0.0, 0.0, 1.694682056777438E9, 0.0, 2023-09-14 11:00:56.777
251.0, -9.253622204497123, 187500.0, 187500.0, 187500.0, 187500.0, 187500.0, 187500.0, 187500.0, 0.032, -0.026000000000000002, 1.002, 192.0, 0.0, 0.0, 0.0, 0.0, 0.0, 0.0, 0.0, 0.0, 0.0, 1.6946820567774827E9, 0.0, 2023-09-14 11:00:56.777
252.0, -14.439226918128362, 187500.0, 187500.0, 187500.0, 187500.0, 187500.0, 187500.0, 187500.0, 0.032, -0.026000000000000002, 1.002, 192.0, 0.0, 0.0, 0.0, 0.0, 0.0, 0.0, 0.0, 0.0, 0.0, 1.694682056777528E9, 0.0, 2023-09-14 11:00:56.777
253.0, -34.01935506097735, 187500.0, 187500.0, 187500.0, 187500.0, 187500.0, 187500.0, 187500.0, 0.032, -0.026000000000000002, 1.002, 192.0, 0.0, 0.0, 0.0, 0.0, 0.0, 0.0, 0.0, 0.0, 0.0, 1.6946820567775722E9, 0.0, 2023-09-14 11:00:56.777
254.0, -38.9367388411449, 187500.0, 187500.0, 187500.0, 187500.0, 187500.0, 187500.0, 187500.0, 0.032, -0.026000000000000002, 1.002, 192.0, 0.0, 0.0, 0.0, 0.0, 0.0, 0.0, 0.0, 0.0, 0.0, 1.6946820567776163E9, 0.0, 2023-09-14 11:00:56.777
255.0, -38.82498011886837, 187500.0, 187500.0, 187500.0, 187500.0, 187500.0, 187500.0, 187500.0, 0.034, -0.02, 1.002, 192.0, 1.0, 16.0, 255.0, 96.0, 31.0, 80.0, 0.0, 0.0, 0.0, 1.6946820567776592E9, 0.0, 2023-09-14 11:00:56.777
0.0, -33.77348587196897, 187500.0, 187500.0, 187500.0, 187500.0, 187500.0, 187500.0, 187500.0, 0.034, -0.02, 1.002, 192.0, 0.0, 0.0, 0.0, 0.0, 0.0, 0.0, 0.0, 0.0, 0.0, 1.6946820567777052E9, 0.0, 2023-09-14 11:00:56.777
1.0, -14.014543773477529, 187500.0, 187500.0, 187500.0, 187500.0, 187500.0, 187500.0, 187500.0, 0.034, -0.02, 1.002, 192.0, 0.0, 0.0, 0.0, 0.0, 0.0, 0.0, 0.0, 0.0, 0.0, 1.694682056777747E9, 0.0, 2023-09-14 11:00:56.777
2.0, -9.141863482220588, 187500.0, 187500.0, 187500.0, 187500.0, 187500.0, 187500.0, 187500.0, 0.034, -0.02, 1.002, 192.0, 0.0, 0.0, 0.0, 0.0, 0.0, 0.0, 0.0, 0.0, 0.0, 1.694682056777789E9, 0.0, 2023-09-14 11:00:56.777
3.0, -9.477139649050194, 187500.0, 187500.0, 187500.0, 187500.0, 187500.0, 187500.0, 187500.0, 0.034, -0.02, 1.002, 192.0, 0.0, 0.0, 0.0, 0.0, 0.0, 0.0, 0.0, 0.0, 0.0, 1.6946820567778304E9, 0.0, 2023-09-14 11:00:56.777
4.0, -15.199186229608802, 187500.0, 187500.0, 187500.0, 187500.0, 187500.0, 187500.0, 187500.0, 0.034, -0.02, 1.002, 192.0, 0.0, 0.0, 0.0, 0.0, 0.0, 0.0, 0.0, 0.0, 0.0, 1.6946820567778747E9, 0.0, 2023-09-14 11:00:56.777
5.0, -34.53344518344941, 187500.0, 187500.0, 187500.0, 187500.0, 187500.0, 187500.0, 187500.0, 0.034, -0.02, 1.002, 192.0, 0.0, 0.0, 0.0, 0.0, 0.0, 0.0, 0.0, 0.0, 0.0, 1.6946820567779987E9, 0.0, 2023-09-14 11:00:56.777
6.0, -38.713221396591834, 187500.0, 187500.0, 187500.0, 187500.0, 187500.0, 187500.0, 187500.0, 0.034, -0.02, 1.002, 192.0, 0.0, 0.0, 0.0, 0.0, 0.0, 0.0, 0.0, 0.0, 0.0, 1.6946820567780447E9, 0.0, 2023-09-14 11:00:56.778
7.0, -39.13790454124267, 187500.0, 187500.0, 187500.0, 187500.0, 187500.0, 187500.0, 187500.0, 0.034, -0.02, 1.002, 192.0, 0.0, 0.0, 0.0, 0.0, 0.0, 0.0, 0.0, 0.0, 0.0, 1.694682056778087E9, 0.0, 2023-09-14 11:00:56.778
8.0, -33.63937540523713, 187500.0, 187500.0, 187500.0, 187500.0, 187500.0, 187500.0, 187500.0, 0.034, -0.02, 1.002, 192.0, 0.0, 0.0, 0.0, 0.0, 0.0, 0.0, 0.0, 0.0, 0.0, 1.69468205677813E9, 0.0, 2023-09-14 11:00:56.778
9.0, -13.880433306745687, 187500.0, 187500.0, 187500.0, 187500.0, 187500.0, 187500.0, 187500.0, 0.036000000000000004, -0.018000000000000002, 1.002, 192.0, 1.0, 32.0, 255.0, 112.0, 31.0, 80.0, 0.0, 0.0, 0.0, 1.6946820567781734E9, 0.0, 2023-09-14 11:00:56.778
10.0, -8.985401271033439, 187500.0, 187500.0, 187500.0, 187500.0, 187500.0, 187500.0, 187500.0, 0.036000000000000004, -0.018000000000000002, 1.002, 192.0, 0.0, 0.0, 0.0, 0.0, 0.0, 0.0, 0.0, 0.0, 0.0, 1.6946820567782204E9, 0.0, 2023-09-14 11:00:56.778
11.0, -9.20891871558651, 187500.0, 187500.0, 187500.0, 187500.0, 187500.0, 187500.0, 187500.0, 0.036000000000000004, -0.018000000000000002, 1.002, 192.0, 0.0, 0.0, 0.0, 0.0, 0.0, 0.0, 0.0, 0.0, 0.0, 1.6946820567782643E9, 0.0, 2023-09-14 11:00:56.778
12.0, -14.640392618226127, 187500.0, 187500.0, 187500.0, 187500.0, 187500.0, 187500.0, 187500.0, 0.036000000000000004, -0.018000000000000002, 1.002, 192.0, 0.0, 0.0, 0.0, 0.0, 0.0, 0.0, 0.0, 0.0, 0.0, 1.6946820567783077E9, 0.0, 2023-09-14 11:00:56.778
13.0, -34.354631227806955, 187500.0, 187500.0, 187500.0, 187500.0, 187500.0, 187500.0, 187500.0, 0.036000000000000004, -0.018000000000000002, 1.002, 192.0, 0.0, 0.0, 0.0, 0.0, 0.0, 0.0, 0.0, 0.0, 0.0, 1.6946820567783515E9, 0.0, 2023-09-14 11:00:56.778
14.0, -39.02614581896613, 187500.0, 187500.0, 187500.0, 187500.0, 187500.0, 187500.0, 187500.0, 0.036000000000000004, -0.018000000000000002, 1.002, 192.0, 0.0, 0.0, 0.0, 0.0, 0.0, 0.0, 0.0, 0.0, 0.0, 1.6946820567783957E9, 0.0, 2023-09-14 11:00:56.778
15.0, -39.2496632635192, 187500.0, 187500.0, 187500.0, 187500.0, 187500.0, 187500.0, 187500.0, 0.036000000000000004, -0.018000000000000002, 1.002, 192.0, 0.0, 0.0, 0.0, 0.0, 0.0, 0.0, 0.0, 0.0, 0.0, 1.6946820567784412E9, 0.0, 2023-09-14 11:00:56.778
16.0, -33.72878238305836, 187500.0, 187500.0, 187500.0, 187500.0, 187500.0, 187500.0, 187500.0, 0.036000000000000004, -0.018000000000000002, 1.002, 192.0, 0.0, 0.0, 0.0, 0.0, 0.0, 0.0, 0.0, 0.0, 0.0, 1.6946820567784846E9, 0.0, 2023-09-14 11:00:56.778
17.0, -14.215709473575291, 187500.0, 187500.0, 187500.0, 187500.0, 187500.0, 187500.0, 187500.0, 0.036000000000000004, -0.018000000000000002, 1.002, 192.0, 0.0, 0.0, 0.0, 0.0, 0.0, 0.0, 0.0, 0.0, 0.0, 1.6946820567785292E9, 0.0, 2023-09-14 11:00:56.778
18.0, -9.499491393505501, 187500.0, 187500.0, 187500.0, 187500.0, 187500.0, 187500.0, 187500.0, 0.036000000000000004, -0.018000000000000002, 1.002, 192.0, 0.0, 0.0, 0.0, 0.0, 0.0, 0.0, 0.0, 0.0, 0.0, 1.694682056778572E9, 0.0, 2023-09-14 11:00:56.778
19.0, -9.499491393505501, 187500.0, 187500.0, 187500.0, 187500.0, 187500.0, 187500.0, 187500.0, 0.036000000000000004, -0.016, 1.004, 192.0, 1.0, 32.0, 255.0, 128.0, 31.0, 96.0, 0.0, 0.0, 0.0, 1.6946820567786129E9, 0.0, 2023-09-14 11:00:56.778
20.0, -14.774503084957969, 187500.0, 187500.0, 187500.0, 187500.0, 187500.0, 187500.0, 187500.0, 0.036000000000000004, -0.016, 1.004, 192.0, 0.0, 0.0, 0.0, 0.0, 0.0, 0.0, 0.0, 0.0, 0.0, 1.6946820567786553E9, 0.0, 2023-09-14 11:00:56.778
21.0, -34.287575994441035, 187500.0, 187500.0, 187500.0, 187500.0, 187500.0, 187500.0, 187500.0, 0.036000000000000004, -0.016, 1.004, 192.0, 0.0, 0.0, 0.0, 0.0, 0.0, 0.0, 0.0, 0.0, 0.0, 1.6946820567787445E9, 0.0, 2023-09-14 11:00:56.778
22.0, -38.80262837441306, 187500.0, 187500.0, 187500.0, 187500.0, 187500.0, 187500.0, 187500.0, 0.036000000000000004, -0.016, 1.004, 192.0, 0.0, 0.0, 0.0, 0.0, 0.0, 0.0, 0.0, 0.0, 0.0, 1.6946820567787857E9, 0.0, 2023-09-14 11:00:56.778
23.0, -38.95909058560021, 187500.0, 187500.0, 187500.0, 187500.0, 187500.0, 187500.0, 187500.0, 0.036000000000000004, -0.016, 1.004, 192.0, 0.0, 0.0, 0.0, 0.0, 0.0, 0.0, 0.0, 0.0, 0.0, 1.6946820567788248E9, 0.0, 2023-09-14 11:00:56.778
24.0, -33.84054110533489, 187500.0, 187500.0, 187500.0, 187500.0, 187500.0, 187500.0, 187500.0, 0.036000000000000004, -0.016, 1.004, 192.0, 0.0, 0.0, 0.0, 0.0, 0.0, 0.0, 0.0, 0.0, 0.0, 1.6946820567788656E9, 0.0, 2023-09-14 11:00:56.778
25.0, -14.059247262388142, 187500.0, 187500.0, 187500.0, 187500.0, 187500.0, 187500.0, 187500.0, 0.036000000000000004, -0.016, 1.004, 192.0, 0.0, 0.0, 0.0, 0.0, 0.0, 0.0, 0.0, 0.0, 0.0, 1.6946820567789147E9, 0.0, 2023-09-14 11:00:56.778
26.0, -9.030104759944054, 187500.0, 187500.0, 187500.0, 187500.0, 187500.0, 187500.0, 187500.0, 0.036000000000000004, -0.016, 1.004, 192.0, 0.0, 0.0, 0.0, 0.0, 0.0, 0.0, 0.0, 0.0, 0.0, 1.6946820567789564E9, 0.0, 2023-09-14 11:00:56.778
27.0, -9.387732671228965, 187500.0, 187500.0, 187500.0, 187500.0, 187500.0, 187500.0, 187500.0, 0.036000000000000004, -0.016, 1.004, 192.0, 0.0, 0.0, 0.0, 0.0, 0.0, 0.0, 0.0, 0.0, 0.0, 1.6946820567789977E9, 0.0, 2023-09-14 11:00:56.778
28.0, -14.863910062779196, 187500.0, 187500.0, 187500.0, 187500.0, 187500.0, 187500.0, 187500.0, 0.036000000000000004, -0.016, 1.004, 192.0, 0.0, 0.0, 0.0, 0.0, 0.0, 0.0, 0.0, 0.0, 0.0, 1.694682056779042E9, 0.0, 2023-09-14 11:00:56.779
29.0, -34.30992773889634, 187500.0, 187500.0, 187500.0, 187500.0, 187500.0, 187500.0, 187500.0, 0.032, -0.02, 1.004, 192.0, 1.0, 0.0, 255.0, 96.0, 31.0, 96.0, 0.0, 0.0, 0.0, 1.6946820567790868E9, 0.0, 2023-09-14 11:00:56.779
30.0, -39.093201052332056, 187500.0, 187500.0, 187500.0, 187500.0, 187500.0, 187500.0, 187500.0, 0.032, -0.02, 1.004, 192.0, 0.0, 0.0, 0.0, 0.0, 0.0, 0.0, 0.0, 0.0, 0.0, 1.694682056779133E9, 0.0, 2023-09-14 11:00:56.779
31.0, -38.981442330055515, 187500.0, 187500.0, 187500.0, 187500.0, 187500.0, 187500.0, 187500.0, 0.032, -0.02, 1.004, 192.0, 0.0, 0.0, 0.0, 0.0, 0.0, 0.0, 0.0, 0.0, 0.0, 1.6946820567791767E9, 0.0, 2023-09-14 11:00:56.779
32.0, -33.99700331652204, 187500.0, 187500.0, 187500.0, 187500.0, 187500.0, 187500.0, 187500.0, 0.032, -0.02, 1.004, 192.0, 0.0, 0.0, 0.0, 0.0, 0.0, 0.0, 0.0, 0.0, 0.0, 1.69468205677922E9, 0.0, 2023-09-14 11:00:56.779
33.0, -14.103950751298756, 187500.0, 187500.0, 187500.0, 187500.0, 187500.0, 187500.0, 187500.0, 0.032, -0.02, 1.004, 192.0, 0.0, 0.0, 0.0, 0.0, 0.0, 0.0, 0.0, 0.0, 0.0, 1.6946820567792628E9, 0.0, 2023-09-14 11:00:56.779
34.0, -9.410084415684274, 187500.0, 187500.0, 187500.0, 187500.0, 187500.0, 187500.0, 187500.0, 0.032, -0.02, 1.004, 192.0, 0.0, 0.0, 0.0, 0.0, 0.0, 0.0, 0.0, 0.0, 0.0, 1.6946820567793057E9, 0.0, 2023-09-14 11:00:56.779
35.0, -9.655953604692652, 187500.0, 187500.0, 187500.0, 187500.0, 187500.0, 187500.0, 187500.0, 0.032, -0.02, 1.004, 192.0, 0.0, 0.0, 0.0, 0.0, 0.0, 0.0, 0.0, 0.0, 0.0, 1.6946820567793489E9, 0.0, 2023-09-14 11:00:56.779
36.0, -14.550985640404898, 187500.0, 187500.0, 187500.0, 187500.0, 187500.0, 187500.0, 187500.0, 0.032, -0.02, 1.004, 192.0, 0.0, 0.0, 0.0, 0.0, 0.0, 0.0, 0.0, 0.0, 0.0, 1.6946820567794468E9, 0.0, 2023-09-14 11:00:56.779
37.0, -33.885244594245506, 187500.0, 187500.0, 187500.0, 187500.0, 187500.0, 187500.0, 187500.0, 0.032, -0.02, 1.004, 192.0, 0.0, 0.0, 0.0, 0.0, 0.0, 0.0, 0.0, 0.0, 0.0, 1.6946820567794917E9, 0.0, 2023-09-14 11:00:56.779
38.0, -38.69086965213653, 187500.0, 187500.0, 187500.0, 187500.0, 187500.0, 187500.0, 187500.0, 0.032, -0.02, 1.004, 192.0, 0.0, 0.0, 0.0, 0.0, 0.0, 0.0, 0.0, 0.0, 0.0, 1.6946820567795343E9, 0.0, 2023-09-14 11:00:56.779
39.0, -38.914387096689595, 187500.0, 187500.0, 187500.0, 187500.0, 187500.0, 187500.0, 187500.0, 0.034, -0.026000000000000002, 1.01, 192.0, 1.0, 16.0, 255.0, 48.0, 31.0, 144.0, 0.0, 0.0, 0.0, 1.6946820567795835E9, 0.0, 2023-09-14 11:00:56.779
40.0, -33.8628928497902, 187500.0, 187500.0, 187500.0, 187500.0, 187500.0, 187500.0, 187500.0, 0.034, -0.026000000000000002, 1.01, 192.0, 0.0, 0.0, 0.0, 0.0, 0.0, 0.0, 0.0, 0.0, 0.0, 1.6946820567796297E9, 0.0, 2023-09-14 11:00:56.779
41.0, -14.193357729119985, 187500.0, 187500.0, 187500.0, 187500.0, 187500.0, 187500.0, 187500.0, 0.034, -0.026000000000000002, 1.01, 192.0, 0.0, 0.0, 0.0, 0.0, 0.0, 0.0, 0.0, 0.0, 0.0, 1.694682056779673E9, 0.0, 2023-09-14 11:00:56.779
42.0, -9.074808248854668, 187500.0, 187500.0, 187500.0, 187500.0, 187500.0, 187500.0, 187500.0, 0.034, -0.026000000000000002, 1.01, 192.0, 0.0, 0.0, 0.0, 0.0, 0.0, 0.0, 0.0, 0.0, 0.0, 1.694682056779719E9, 0.0, 2023-09-14 11:00:56.779
43.0, -9.298325693407739, 187500.0, 187500.0, 187500.0, 187500.0, 187500.0, 187500.0, 187500.0, 0.034, -0.026000000000000002, 1.01, 192.0, 0.0, 0.0, 0.0, 0.0, 0.0, 0.0, 0.0, 0.0, 0.0, 1.6946820567797656E9, 0.0, 2023-09-14 11:00:56.779
44.0, -14.796854829413276, 187500.0, 187500.0, 187500.0, 187500.0, 187500.0, 187500.0, 187500.0, 0.034, -0.026000000000000002, 1.01, 192.0, 0.0, 0.0, 0.0, 0.0, 0.0, 0.0, 0.0, 0.0, 0.0, 1.6946820567798095E9, 0.0, 2023-09-14 11:00:56.779
45.0, -34.33227948335165, 187500.0, 187500.0, 187500.0, 187500.0, 187500.0, 187500.0, 187500.0, 0.034, -0.026000000000000002, 1.01, 192.0, 0.0, 0.0, 0.0, 0.0, 0.0, 0.0, 0.0, 0.0, 0.0, 1.6946820567798529E9, 0.0, 2023-09-14 11:00:56.779
46.0, -38.80262837441306, 187500.0, 187500.0, 187500.0, 187500.0, 187500.0, 187500.0, 187500.0, 0.034, -0.026000000000000002, 1.01, 192.0, 0.0, 0.0, 0.0, 0.0, 0.0, 0.0, 0.0, 0.0, 0.0, 1.6946820567799196E9, 0.0, 2023-09-14 11:00:56.779
47.0, -39.093201052332056, 187500.0, 187500.0, 187500.0, 187500.0, 187500.0, 187500.0, 187500.0, 0.034, -0.026000000000000002, 1.01, 192.0, 0.0, 0.0, 0.0, 0.0, 0.0, 0.0, 0.0, 0.0, 0.0, 1.6946820567799668E9, 0.0, 2023-09-14 11:00:56.779
48.0, -33.885244594245506, 187500.0, 187500.0, 187500.0, 187500.0, 187500.0, 187500.0, 187500.0, 0.034, -0.026000000000000002, 1.01, 192.0, 0.0, 0.0, 0.0, 0.0, 0.0, 0.0, 0.0, 0.0, 0.0, 1.6946820567800143E9, 0.0, 2023-09-14 11:00:56.780
49.0, -14.059247262388142, 187500.0, 187500.0, 187500.0, 187500.0, 187500.0, 187500.0, 187500.0, 0.038, -0.022, 1.006, 192.0, 1.0, 48.0, 255.0, 80.0, 31.0, 112.0, 0.0, 0.0, 0.0, 1.6946820567800584E9, 0.0, 2023-09-14 11:00:56.780
50.0, -9.365380926773659, 187500.0, 187500.0, 187500.0, 187500.0, 187500.0, 187500.0, 187500.0, 0.038, -0.022, 1.006, 192.0, 0.0, 0.0, 0.0, 0.0, 0.0, 0.0, 0.0, 0.0, 0.0, 1.6946820567801049E9, 0.0, 2023-09-14 11:00:56.780
51.0, -9.20891871558651, 187500.0, 187500.0, 187500.0, 187500.0, 187500.0, 187500.0, 187500.0, 0.038, -0.022, 1.006, 192.0, 0.0, 0.0, 0.0, 0.0, 0.0, 0.0, 0.0, 0.0, 0.0, 1.6946820567801483E9, 0.0, 2023-09-14 11:00:56.780
52.0, -14.372171684762442, 187500.0, 187500.0, 187500.0, 187500.0, 187500.0, 187500.0, 187500.0, 0.038, -0.022, 1.006, 192.0, 0.0, 0.0, 0.0, 0.0, 0.0, 0.0, 0.0, 0.0, 0.0, 1.6946820567802384E9, 0.0, 2023-09-14 11:00:56.780
53.0, -34.354631227806955, 187500.0, 187500.0, 187500.0, 187500.0, 187500.0, 187500.0, 187500.0, 0.038, -0.022, 1.006, 192.0, 0.0, 0.0, 0.0, 0.0, 0.0, 0.0, 0.0, 0.0, 0.0, 1.6946820567802873E9, 0.0, 2023-09-14 11:00:56.780
54.0, -38.82498011886837, 187500.0, 187500.0, 187500.0, 187500.0, 187500.0, 187500.0, 187500.0, 0.038, -0.022, 1.006, 192.0, 0.0, 0.0, 0.0, 0.0, 0.0, 0.0, 0.0, 0.0, 0.0, 1.6946820567803311E9, 0.0, 2023-09-14 11:00:56.780
55.0, -38.82498011886837, 187500.0, 187500.0, 187500.0, 187500.0, 187500.0, 187500.0, 187500.0, 0.038, -0.022, 1.006, 192.0, 0.0, 0.0, 0.0, 0.0, 0.0, 0.0, 0.0, 0.0, 0.0, 1.694682056780374E9, 0.0, 2023-09-14 11:00:56.780
56.0, -33.84054110533489, 187500.0, 187500.0, 187500.0, 187500.0, 187500.0, 187500.0, 187500.0, 0.038, -0.022, 1.006, 192.0, 0.0, 0.0, 0.0, 0.0, 0.0, 0.0, 0.0, 0.0, 0.0, 1.6946820567804174E9, 0.0, 2023-09-14 11:00:56.780
57.0, -14.238061218030598, 187500.0, 187500.0, 187500.0, 187500.0, 187500.0, 187500.0, 187500.0, 0.038, -0.022, 1.006, 192.0, 0.0, 0.0, 0.0, 0.0, 0.0, 0.0, 0.0, 0.0, 0.0, 1.6946820567804606E9, 0.0, 2023-09-14 11:00:56.780
58.0, -9.655953604692652, 187500.0, 187500.0, 187500.0, 187500.0, 187500.0, 187500.0, 187500.0, 0.038, -0.022, 1.006, 192.0, 0.0, 0.0, 0.0, 0.0, 0.0, 0.0, 0.0, 0.0, 0.0, 1.6946820567805035E9, 0.0, 2023-09-14 11:00:56.780
59.0, -9.499491393505501, 187500.0, 187500.0, 187500.0, 187500.0, 187500.0, 187500.0, 187500.0, 0.036000000000000004, -0.018000000000000002, 1.008, 192.0, 1.0, 32.0, 255.0, 112.0, 31.0, 128.0, 0.0, 0.0, 0.0, 1.6946820567805507E9, 0.0, 2023-09-14 11:00:56.780
60.0, -14.841558318323889, 187500.0, 187500.0, 187500.0, 187500.0, 187500.0, 187500.0, 187500.0, 0.036000000000000004, -0.018000000000000002, 1.008, 192.0, 0.0, 0.0, 0.0, 0.0, 0.0, 0.0, 0.0, 0.0, 0.0, 1.6946820567805972E9, 0.0, 2023-09-14 11:00:56.780
61.0, -34.46638995008349, 187500.0, 187500.0, 187500.0, 187500.0, 187500.0, 187500.0, 187500.0, 0.036000000000000004, -0.018000000000000002, 1.008, 192.0, 0.0, 0.0, 0.0, 0.0, 0.0, 0.0, 0.0, 0.0, 0.0, 1.6946820567806408E9, 0.0, 2023-09-14 11:00:56.780
62.0, -39.093201052332056, 187500.0, 187500.0, 187500.0, 187500.0, 187500.0, 187500.0, 187500.0, 0.036000000000000004, -0.018000000000000002, 1.008, 192.0, 0.0, 0.0, 0.0, 0.0, 0.0, 0.0, 0.0, 0.0, 0.0, 1.6946820567806854E9, 0.0, 2023-09-14 11:00:56.780
63.0, -38.780276629957754, 187500.0, 187500.0, 187500.0, 187500.0, 187500.0, 187500.0, 187500.0, 0.036000000000000004, -0.018000000000000002, 1.008, 192.0, 0.0, 0.0, 0.0, 0.0, 0.0, 0.0, 0.0, 0.0, 0.0, 1.6946820567807295E9, 0.0, 2023-09-14 11:00:56.780
64.0, -33.72878238305836, 187500.0, 187500.0, 187500.0, 187500.0, 187500.0, 187500.0, 187500.0, 0.036000000000000004, -0.018000000000000002, 1.008, 192.0, 0.0, 0.0, 0.0, 0.0, 0.0, 0.0, 0.0, 0.0, 0.0, 1.6946820567807713E9, 0.0, 2023-09-14 11:00:56.780
65.0, -14.126302495754064, 187500.0, 187500.0, 187500.0, 187500.0, 187500.0, 187500.0, 187500.0, 0.036000000000000004, -0.018000000000000002, 1.008, 192.0, 0.0, 0.0, 0.0, 0.0, 0.0, 0.0, 0.0, 0.0, 0.0, 1.6946820567808144E9, 0.0, 2023-09-14 11:00:56.780
66.0, -9.365380926773659, 187500.0, 187500.0, 187500.0, 187500.0, 187500.0, 187500.0, 187500.0, 0.036000000000000004, -0.018000000000000002, 1.008, 192.0, 0.0, 0.0, 0.0, 0.0, 0.0, 0.0, 0.0, 0.0, 0.0, 1.6946820567808585E9, 0.0, 2023-09-14 11:00:56.780
67.0, -9.52184313796081, 187500.0, 187500.0, 187500.0, 187500.0, 187500.0, 187500.0, 187500.0, 0.036000000000000004, -0.018000000000000002, 1.008, 192.0, 0.0, 0.0, 0.0, 0.0, 0.0, 0.0, 0.0, 0.0, 0.0, 1.6946820567809498E9, 0.0, 2023-09-14 11:00:56.780
68.0, -14.99802052951104, 187500.0, 187500.0, 187500.0, 187500.0, 187500.0, 187500.0, 187500.0, 0.036000000000000004, -0.018000000000000002, 1.008, 192.0, 0.0, 0.0, 0.0, 0.0, 0.0, 0.0, 0.0, 0.0, 0.0, 1.694682056780995E9, 0.0, 2023-09-14 11:00:56.780
69.0, -34.354631227806955, 187500.0, 187500.0, 187500.0, 187500.0, 187500.0, 187500.0, 187500.0, 0.036000000000000004, -0.022, 1.002, 192.0, 1.0, 32.0, 255.0, 80.0, 31.0, 80.0, 0.0, 0.0, 0.0, 1.6946820567810392E9, 0.0, 2023-09-14 11:00:56.781
70.0, -38.86968360777898, 187500.0, 187500.0, 187500.0, 187500.0, 187500.0, 187500.0, 187500.0, 0.036000000000000004, -0.022, 1.002, 192.0, 0.0, 0.0, 0.0, 0.0, 0.0, 0.0, 0.0, 0.0, 0.0, 1.694682056781086E9, 0.0, 2023-09-14 11:00:56.781
71.0, -38.80262837441306, 187500.0, 187500.0, 187500.0, 187500.0, 187500.0, 187500.0, 187500.0, 0.036000000000000004, -0.022, 1.002, 192.0, 0.0, 0.0, 0.0, 0.0, 0.0, 0.0, 0.0, 0.0, 0.0, 1.6946820567811303E9, 0.0, 2023-09-14 11:00:56.781
72.0, -33.77348587196897, 187500.0, 187500.0, 187500.0, 187500.0, 187500.0, 187500.0, 187500.0, 0.036000000000000004, -0.022, 1.002, 192.0, 0.0, 0.0, 0.0, 0.0, 0.0, 0.0, 0.0, 0.0, 0.0, 1.694682056781175E9, 0.0, 2023-09-14 11:00:56.781
73.0, -14.08159900684345, 187500.0, 187500.0, 187500.0, 187500.0, 187500.0, 187500.0, 187500.0, 0.036000000000000004, -0.022, 1.002, 192.0, 0.0, 0.0, 0.0, 0.0, 0.0, 0.0, 0.0, 0.0, 0.0, 1.6946820567812195E9, 0.0, 2023-09-14 11:00:56.781
74.0, -9.454787904594887, 187500.0, 187500.0, 187500.0, 187500.0, 187500.0, 187500.0, 187500.0, 0.036000000000000004, -0.022, 1.002, 192.0, 0.0, 0.0, 0.0, 0.0, 0.0, 0.0, 0.0, 0.0, 0.0, 1.6946820567812643E9, 0.0, 2023-09-14 11:00:56.781
75.0, -9.499491393505501, 187500.0, 187500.0, 187500.0, 187500.0, 187500.0, 187500.0, 187500.0, 0.036000000000000004, -0.022, 1.002, 192.0, 0.0, 0.0, 0.0, 0.0, 0.0, 0.0, 0.0, 0.0, 0.0, 1.694682056781309E9, 0.0, 2023-09-14 11:00:56.781
76.0, -14.573337384860205, 187500.0, 187500.0, 187500.0, 187500.0, 187500.0, 187500.0, 187500.0, 0.036000000000000004, -0.022, 1.002, 192.0, 0.0, 0.0, 0.0, 0.0, 0.0, 0.0, 0.0, 0.0, 0.0, 1.694682056781353E9, 0.0, 2023-09-14 11:00:56.781
77.0, -34.33227948335165, 187500.0, 187500.0, 187500.0, 187500.0, 187500.0, 187500.0, 187500.0, 0.036000000000000004, -0.022, 1.002, 192.0, 0.0, 0.0, 0.0, 0.0, 0.0, 0.0, 0.0, 0.0, 0.0, 1.6946820567813976E9, 0.0, 2023-09-14 11:00:56.781
78.0, -39.093201052332056, 187500.0, 187500.0, 187500.0, 187500.0, 187500.0, 187500.0, 187500.0, 0.036000000000000004, -0.022, 1.002, 192.0, 0.0, 0.0, 0.0, 0.0, 0.0, 0.0, 0.0, 0.0, 0.0, 1.694682056781442E9, 0.0, 2023-09-14 11:00:56.781
79.0, -38.80262837441306, 187500.0, 187500.0, 187500.0, 187500.0, 187500.0, 187500.0, 187500.0, 0.04, -0.022, 1.004, 192.0, 1.0, 64.0, 255.0, 80.0, 31.0, 96.0, 0.0, 0.0, 0.0, 1.6946820567814858E9, 0.0, 2023-09-14 11:00:56.781
80.0, -34.13111378325389, 187500.0, 187500.0, 187500.0, 187500.0, 187500.0, 187500.0, 187500.0, 0.04, -0.022, 1.004, 192.0, 0.0, 0.0, 0.0, 0.0, 0.0, 0.0, 0.0, 0.0, 0.0, 1.6946820567815316E9, 0.0, 2023-09-14 11:00:56.781
81.0, -14.282764706941213, 187500.0, 187500.0, 187500.0, 187500.0, 187500.0, 187500.0, 187500.0, 0.04, -0.022, 1.004, 192.0, 0.0, 0.0, 0.0, 0.0, 0.0, 0.0, 0.0, 0.0, 0.0, 1.694682056781575E9, 0.0, 2023-09-14 11:00:56.781
82.0, -8.985401271033439, 187500.0, 187500.0, 187500.0, 187500.0, 187500.0, 187500.0, 187500.0, 0.04, -0.022, 1.004, 192.0, 0.0, 0.0, 0.0, 0.0, 0.0, 0.0, 0.0, 0.0, 0.0, 1.694682056781662E9, 0.0, 2023-09-14 11:00:56.781
83.0, -9.320677437863045, 187500.0, 187500.0, 187500.0, 187500.0, 187500.0, 187500.0, 187500.0, 0.04, -0.022, 1.004, 192.0, 0.0, 0.0, 0.0, 0.0, 0.0, 0.0, 0.0, 0.0, 0.0, 1.6946820567817042E9, 0.0, 2023-09-14 11:00:56.781
84.0, -14.819206573868582, 187500.0, 187500.0, 187500.0, 187500.0, 187500.0, 187500.0, 187500.0, 0.04, -0.022, 1.004, 192.0, 0.0, 0.0, 0.0, 0.0, 0.0, 0.0, 0.0, 0.0, 0.0, 1.694682056781748E9, 0.0, 2023-09-14 11:00:56.781
85.0, -34.57814867236002, 187500.0, 187500.0, 187500.0, 187500.0, 187500.0, 187500.0, 187500.0, 0.04, -0.022, 1.004, 192.0, 0.0, 0.0, 0.0, 0.0, 0.0, 0.0, 0.0, 0.0, 0.0, 1.6946820567817898E9, 0.0, 2023-09-14 11:00:56.781
86.0, -39.13790454124267, 187500.0, 187500.0, 187500.0, 187500.0, 187500.0, 187500.0, 187500.0, 0.04, -0.022, 1.004, 192.0, 0.0, 0.0, 0.0, 0.0, 0.0, 0.0, 0.0, 0.0, 0.0, 1.6946820567818315E9, 0.0, 2023-09-14 11:00:56.781
87.0, -39.02614581896613, 187500.0, 187500.0, 187500.0, 187500.0, 187500.0, 187500.0, 187500.0, 0.04, -0.022, 1.004, 192.0, 0.0, 0.0, 0.0, 0.0, 0.0, 0.0, 0.0, 0.0, 0.0, 1.6946820567818737E9, 0.0, 2023-09-14 11:00:56.781
88.0, -33.84054110533489, 187500.0, 187500.0, 187500.0, 187500.0, 187500.0, 187500.0, 187500.0, 0.04, -0.022, 1.004, 192.0, 0.0, 0.0, 0.0, 0.0, 0.0, 0.0, 0.0, 0.0, 0.0, 1.6946820567819293E9, 0.0, 2023-09-14 11:00:56.781
89.0, -14.439226918128362, 187500.0, 187500.0, 187500.0, 187500.0, 187500.0, 187500.0, 187500.0, 0.034, -0.026000000000000002, 1.006, 192.0, 1.0, 16.0, 255.0, 48.0, 31.0, 112.0, 0.0, 0.0, 0.0, 1.6946820567819712E9, 0.0, 2023-09-14 11:00:56.781
90.0, -9.43243616013958, 187500.0, 187500.0, 187500.0, 187500.0, 187500.0, 187500.0, 187500.0, 0.034, -0.026000000000000002, 1.006, 192.0, 0.0, 0.0, 0.0, 0.0, 0.0, 0.0, 0.0, 0.0, 0.0, 1.6946820567820172E9, 0.0, 2023-09-14 11:00:56.782
91.0, -9.499491393505501, 187500.0, 187500.0, 187500.0, 187500.0, 187500.0, 187500.0, 187500.0, 0.034, -0.026000000000000002, 1.006, 192.0, 0.0, 0.0, 0.0, 0.0, 0.0, 0.0, 0.0, 0.0, 0.0, 1.694682056782059E9, 0.0, 2023-09-14 11:00:56.782
92.0, -14.774503084957969, 187500.0, 187500.0, 187500.0, 187500.0, 187500.0, 187500.0, 187500.0, 0.034, -0.026000000000000002, 1.006, 192.0, 0.0, 0.0, 0.0, 0.0, 0.0, 0.0, 0.0, 0.0, 0.0, 1.6946820567821023E9, 0.0, 2023-09-14 11:00:56.782
93.0, -34.354631227806955, 187500.0, 187500.0, 187500.0, 187500.0, 187500.0, 187500.0, 187500.0, 0.034, -0.026000000000000002, 1.006, 192.0, 0.0, 0.0, 0.0, 0.0, 0.0, 0.0, 0.0, 0.0, 0.0, 1.694682056782143E9, 0.0, 2023-09-14 11:00:56.782
94.0, -39.093201052332056, 187500.0, 187500.0, 187500.0, 187500.0, 187500.0, 187500.0, 187500.0, 0.034, -0.026000000000000002, 1.006, 192.0, 0.0, 0.0, 0.0, 0.0, 0.0, 0.0, 0.0, 0.0, 0.0, 1.6946820567821856E9, 0.0, 2023-09-14 11:00:56.782
95.0, -39.13790454124267, 187500.0, 187500.0, 187500.0, 187500.0, 187500.0, 187500.0, 187500.0, 0.034, -0.026000000000000002, 1.006, 192.0, 0.0, 0.0, 0.0, 0.0, 0.0, 0.0, 0.0, 0.0, 0.0, 1.6946820567822278E9, 0.0, 2023-09-14 11:00:56.782
96.0, -33.84054110533489, 187500.0, 187500.0, 187500.0, 187500.0, 187500.0, 187500.0, 187500.0, 0.034, -0.026000000000000002, 1.006, 192.0, 0.0, 0.0, 0.0, 0.0, 0.0, 0.0, 0.0, 0.0, 0.0, 1.6946820567822704E9, 0.0, 2023-09-14 11:00:56.782
97.0, -14.014543773477529, 187500.0, 187500.0, 187500.0, 187500.0, 187500.0, 187500.0, 187500.0, 0.034, -0.026000000000000002, 1.006, 192.0, 0.0, 0.0, 0.0, 0.0, 0.0, 0.0, 0.0, 0.0, 0.0, 1.6946820567823155E9, 0.0, 2023-09-14 11:00:56.782
98.0, -9.454787904594887, 187500.0, 187500.0, 187500.0, 187500.0, 187500.0, 187500.0, 187500.0, 0.032, -0.024, 1.012, 192.0, 1.0, 0.0, 255.0, 64.0, 31.0, 160.0, 0.0, 0.0, 0.0, 1.6946820567824059E9, 0.0, 2023-09-14 11:00:56.782
99.0, -9.611250115782036, 187500.0, 187500.0, 187500.0, 187500.0, 187500.0, 187500.0, 187500.0, 0.032, -0.024, 1.012, 192.0, 0.0, 0.0, 0.0, 0.0, 0.0, 0.0, 0.0, 0.0, 0.0, 1.694682056782452E9, 0.0, 2023-09-14 11:00:56.782
100.0, -14.707447851592047, 187500.0, 187500.0, 187500.0, 187500.0, 187500.0, 187500.0, 187500.0, 0.032, -0.024, 1.012, 192.0, 0.0, 0.0, 0.0, 0.0, 0.0, 0.0, 0.0, 0.0, 0.0, 1.6946820567824967E9, 0.0, 2023-09-14 11:00:56.782
101.0, -34.44403820562818, 187500.0, 187500.0, 187500.0, 187500.0, 187500.0, 187500.0, 187500.0, 0.032, -0.024, 1.012, 192.0, 0.0, 0.0, 0.0, 0.0, 0.0, 0.0, 0.0, 0.0, 0.0, 1.6946820567825398E9, 0.0, 2023-09-14 11:00:56.782
102.0, -38.9367388411449, 187500.0, 187500.0, 187500.0, 187500.0, 187500.0, 187500.0, 187500.0, 0.032, -0.024, 1.012, 192.0, 0.0, 0.0, 0.0, 0.0, 0.0, 0.0, 0.0, 0.0, 0.0, 1.694682056782581E9, 0.0, 2023-09-14 11:00:56.782
103.0, -38.9367388411449, 187500.0, 187500.0, 187500.0, 187500.0, 187500.0, 187500.0, 187500.0, 0.032, -0.024, 1.012, 192.0, 0.0, 0.0, 0.0, 0.0, 0.0, 0.0, 0.0, 0.0, 0.0, 1.694682056782621E9, 0.0, 2023-09-14 11:00:56.782
104.0, -33.90759633870081, 187500.0, 187500.0, 187500.0, 187500.0, 187500.0, 187500.0, 187500.0, 0.032, -0.024, 1.012, 192.0, 0.0, 0.0, 0.0, 0.0, 0.0, 0.0, 0.0, 0.0, 0.0, 1.694682056782662E9, 0.0, 2023-09-14 11:00:56.782
105.0, -14.349819940307134, 187500.0, 187500.0, 187500.0, 187500.0, 187500.0, 187500.0, 187500.0, 0.032, -0.024, 1.012, 192.0, 0.0, 0.0, 0.0, 0.0, 0.0, 0.0, 0.0, 0.0, 0.0, 1.6946820572568457E9, 0.0, 2023-09-14 11:00:57.256
106.0, -9.298325693407739, 187500.0, 187500.0, 187500.0, 187500.0, 187500.0, 187500.0, 187500.0, 0.032, -0.024, 1.012, 192.0, 0.0, 0.0, 0.0, 0.0, 0.0, 0.0, 0.0, 0.0, 0.0, 1.6946820572569466E9, 0.0, 2023-09-14 11:00:57.256
107.0, -9.655953604692652, 187500.0, 187500.0, 187500.0, 187500.0, 187500.0, 187500.0, 187500.0, 0.032, -0.024, 1.012, 192.0, 0.0, 0.0, 0.0, 0.0, 0.0, 0.0, 0.0, 0.0, 0.0, 1.6946820572570162E9, 0.0, 2023-09-14 11:00:57.257
108.0, -14.886261807234504, 187500.0, 187500.0, 187500.0, 187500.0, 187500.0, 187500.0, 187500.0, 0.026000000000000002, -0.024, 1.004, 192.0, 0.0, 208.0, 255.0, 64.0, 31.0, 96.0, 0.0, 0.0, 0.0, 1.694682057257074E9, 0.0, 2023-09-14 11:00:57.257
109.0, -34.26522424998573, 187500.0, 187500.0, 187500.0, 187500.0, 187500.0, 187500.0, 187500.0, 0.026000000000000002, -0.024, 1.004, 192.0, 0.0, 0.0, 0.0, 0.0, 0.0, 0.0, 0.0, 0.0, 0.0, 1.6946820572571206E9, 0.0, 2023-09-14 11:00:57.257
110.0, -38.646166163225914, 187500.0, 187500.0, 187500.0, 187500.0, 187500.0, 187500.0, 187500.0, 0.026000000000000002, -0.024, 1.004, 192.0, 0.0, 0.0, 0.0, 0.0, 0.0, 0.0, 0.0, 0.0, 0.0, 1.6946820572571654E9, 0.0, 2023-09-14 11:00:57.257
111.0, -38.66851790768122, 187500.0, 187500.0, 187500.0, 187500.0, 187500.0, 187500.0, 187500.0, 0.026000000000000002, -0.024, 1.004, 192.0, 0.0, 0.0, 0.0, 0.0, 0.0, 0.0, 0.0, 0.0, 0.0, 1.69468205725721E9, 0.0, 2023-09-14 11:00:57.257
112.0, -33.617023660781825, 187500.0, 187500.0, 187500.0, 187500.0, 187500.0, 187500.0, 187500.0, 0.026000000000000002, -0.024, 1.004, 192.0, 0.0, 0.0, 0.0, 0.0, 0.0, 0.0, 0.0, 0.0, 0.0, 1.6946820572572532E9, 0.0, 2023-09-14 11:00:57.257
113.0, -14.08159900684345, 187500.0, 187500.0, 187500.0, 187500.0, 187500.0, 187500.0, 187500.0, 0.026000000000000002, -0.024, 1.004, 192.0, 0.0, 0.0, 0.0, 0.0, 0.0, 0.0, 0.0, 0.0, 0.0, 1.6946820572575088E9, 0.0, 2023-09-14 11:00:57.257
114.0, -9.499491393505501, 187500.0, 187500.0, 187500.0, 187500.0, 187500.0, 187500.0, 187500.0, 0.026000000000000002, -0.024, 1.004, 192.0, 0.0, 0.0, 0.0, 0.0, 0.0, 0.0, 0.0, 0.0, 0.0, 1.6946820572575576E9, 0.0, 2023-09-14 11:00:57.257
115.0, -9.700657093603265, 187500.0, 187500.0, 187500.0, 187500.0, 187500.0, 187500.0, 187500.0, 0.026000000000000002, -0.024, 1.004, 192.0, 0.0, 0.0, 0.0, 0.0, 0.0, 0.0, 0.0, 0.0, 0.0, 1.6946820572576032E9, 0.0, 2023-09-14 11:00:57.257
116.0, -14.439226918128362, 187500.0, 187500.0, 187500.0, 187500.0, 187500.0, 187500.0, 187500.0, 0.026000000000000002, -0.024, 1.004, 192.0, 0.0, 0.0, 0.0, 0.0, 0.0, 0.0, 0.0, 0.0, 0.0, 1.694682057257648E9, 0.0, 2023-09-14 11:00:57.257
117.0, -34.10876203879858, 187500.0, 187500.0, 187500.0, 187500.0, 187500.0, 187500.0, 187500.0, 0.026000000000000002, -0.024, 1.004, 192.0, 0.0, 0.0, 0.0, 0.0, 0.0, 0.0, 0.0, 0.0, 0.0, 1.6946820572576945E9, 0.0, 2023-09-14 11:00:57.257
118.0, -38.69086965213653, 187500.0, 187500.0, 187500.0, 187500.0, 187500.0, 187500.0, 187500.0, 0.028, -0.024, 1.006, 192.0, 0.0, 224.0, 255.0, 64.0, 31.0, 112.0, 0.0, 0.0, 0.0, 1.6946820572577348E9, 0.0, 2023-09-14 11:00:57.257
119.0, -39.07084930787675, 187500.0, 187500.0, 187500.0, 187500.0, 187500.0, 187500.0, 187500.0, 0.028, -0.024, 1.006, 192.0, 0.0, 0.0, 0.0, 0.0, 0.0, 0.0, 0.0, 0.0, 0.0, 1.6946820572577806E9, 0.0, 2023-09-14 11:00:57.257
120.0, -33.79583761642428, 187500.0, 187500.0, 187500.0, 187500.0, 187500.0, 187500.0, 187500.0, 0.028, -0.024, 1.006, 192.0, 0.0, 0.0, 0.0, 0.0, 0.0, 0.0, 0.0, 0.0, 0.0, 1.694682057257824E9, 0.0, 2023-09-14 11:00:57.257
121.0, -14.059247262388142, 187500.0, 187500.0, 187500.0, 187500.0, 187500.0, 187500.0, 187500.0, 0.028, -0.024, 1.006, 192.0, 0.0, 0.0, 0.0, 0.0, 0.0, 0.0, 0.0, 0.0, 0.0, 1.694682057257867E9, 0.0, 2023-09-14 11:00:57.257
122.0, -9.186566971131203, 187500.0, 187500.0, 187500.0, 187500.0, 187500.0, 187500.0, 187500.0, 0.028, -0.024, 1.006, 192.0, 0.0, 0.0, 0.0, 0.0, 0.0, 0.0, 0.0, 0.0, 0.0, 1.6946820572579117E9, 0.0, 2023-09-14 11:00:57.257
123.0, -9.499491393505501, 187500.0, 187500.0, 187500.0, 187500.0, 187500.0, 187500.0, 187500.0, 0.028, -0.024, 1.006, 192.0, 0.0, 0.0, 0.0, 0.0, 0.0, 0.0, 0.0, 0.0, 0.0, 1.6946820572579544E9, 0.0, 2023-09-14 11:00:57.257
124.0, -14.841558318323889, 187500.0, 187500.0, 187500.0, 187500.0, 187500.0, 187500.0, 187500.0, 0.028, -0.024, 1.006, 192.0, 0.0, 0.0, 0.0, 0.0, 0.0, 0.0, 0.0, 0.0, 0.0, 1.6946820572579987E9, 0.0, 2023-09-14 11:00:57.257
125.0, -34.354631227806955, 187500.0, 187500.0, 187500.0, 187500.0, 187500.0, 187500.0, 187500.0, 0.028, -0.024, 1.006, 192.0, 0.0, 0.0, 0.0, 0.0, 0.0, 0.0, 0.0, 0.0, 0.0, 1.6946820572580411E9, 0.0, 2023-09-14 11:00:57.258
126.0, -38.80262837441306, 187500.0, 187500.0, 187500.0, 187500.0, 187500.0, 187500.0, 187500.0, 0.028, -0.024, 1.006, 192.0, 0.0, 0.0, 0.0, 0.0, 0.0, 0.0, 0.0, 0.0, 0.0, 1.6946820572580857E9, 0.0, 2023-09-14 11:00:57.258
127.0, -38.62381441877061, 187500.0, 187500.0, 187500.0, 187500.0, 187500.0, 187500.0, 187500.0, 0.028, -0.024, 1.006, 192.0, 0.0, 0.0, 0.0, 0.0, 0.0, 0.0, 0.0, 0.0, 0.0, 1.69468205725813E9, 0.0, 2023-09-14 11:00:57.258
128.0, -33.72878238305836, 187500.0, 187500.0, 187500.0, 187500.0, 187500.0, 187500.0, 187500.0, 0.034, -0.028, 1.002, 192.0, 1.0, 16.0, 255.0, 32.0, 31.0, 80.0, 0.0, 0.0, 0.0, 1.694682057258295E9, 0.0, 2023-09-14 11:00:57.258
129.0, -14.193357729119985, 187500.0, 187500.0, 187500.0, 187500.0, 187500.0, 187500.0, 187500.0, 0.034, -0.028, 1.002, 192.0, 0.0, 0.0, 0.0, 0.0, 0.0, 0.0, 0.0, 0.0, 0.0, 1.6946820572583525E9, 0.0, 2023-09-14 11:00:57.258
130.0, -9.365380926773659, 187500.0, 187500.0, 187500.0, 187500.0, 187500.0, 187500.0, 187500.0, 0.034, -0.028, 1.002, 192.0, 0.0, 0.0, 0.0, 0.0, 0.0, 0.0, 0.0, 0.0, 0.0, 1.694682057258392E9, 0.0, 2023-09-14 11:00:57.258
131.0, -9.410084415684274, 187500.0, 187500.0, 187500.0, 187500.0, 187500.0, 187500.0, 187500.0, 0.034, -0.028, 1.002, 192.0, 0.0, 0.0, 0.0, 0.0, 0.0, 0.0, 0.0, 0.0, 0.0, 1.6946820572584355E9, 0.0, 2023-09-14 11:00:57.258
132.0, -14.595689129315511, 187500.0, 187500.0, 187500.0, 187500.0, 187500.0, 187500.0, 187500.0, 0.034, -0.028, 1.002, 192.0, 0.0, 0.0, 0.0, 0.0, 0.0, 0.0, 0.0, 0.0, 0.0, 1.694682057258465E9, 0.0, 2023-09-14 11:00:57.258
133.0, -34.24287250553042, 187500.0, 187500.0, 187500.0, 187500.0, 187500.0, 187500.0, 187500.0, 0.034, -0.028, 1.002, 192.0, 0.0, 0.0, 0.0, 0.0, 0.0, 0.0, 0.0, 0.0, 0.0, 1.6946820572584891E9, 0.0, 2023-09-14 11:00:57.258
134.0, -38.95909058560021, 187500.0, 187500.0, 187500.0, 187500.0, 187500.0, 187500.0, 187500.0, 0.034, -0.028, 1.002, 192.0, 0.0, 0.0, 0.0, 0.0, 0.0, 0.0, 0.0, 0.0, 0.0, 1.6946820572585135E9, 0.0, 2023-09-14 11:00:57.258
135.0, -38.53440744094937, 187500.0, 187500.0, 187500.0, 187500.0, 187500.0, 187500.0, 187500.0, 0.034, -0.028, 1.002, 192.0, 0.0, 0.0, 0.0, 0.0, 0.0, 0.0, 0.0, 0.0, 0.0, 1.694682057258538E9, 0.0, 2023-09-14 11:00:57.258
136.0, -33.617023660781825, 187500.0, 187500.0, 187500.0, 187500.0, 187500.0, 187500.0, 187500.0, 0.034, -0.028, 1.002, 192.0, 0.0, 0.0, 0.0, 0.0, 0.0, 0.0, 0.0, 0.0, 0.0, 1.694682057258562E9, 0.0, 2023-09-14 11:00:57.258
137.0, -13.9251367956563, 187500.0, 187500.0, 187500.0, 187500.0, 187500.0, 187500.0, 187500.0, 0.034, -0.028, 1.002, 192.0, 0.0, 0.0, 0.0, 0.0, 0.0, 0.0, 0.0, 0.0, 0.0, 1.694682057258586E9, 0.0, 2023-09-14 11:00:57.258
138.0, -9.231270460041817, 187500.0, 187500.0, 187500.0, 187500.0, 187500.0, 187500.0, 187500.0, 0.034, -0.028, 1.002, 192.0, 1.0, 16.0, 255.0, 32.0, 31.0, 80.0, 0.0, 0.0, 0.0, 1.6946820572586105E9, 0.0, 2023-09-14 11:00:57.258
139.0, -9.298325693407739, 187500.0, 187500.0, 187500.0, 187500.0, 187500.0, 187500.0, 187500.0, 0.034, -0.028, 1.002, 192.0, 0.0, 0.0, 0.0, 0.0, 0.0, 0.0, 0.0, 0.0, 0.0, 1.694682057258636E9, 0.0, 2023-09-14 11:00:57.258
140.0, -14.483930407038976, 187500.0, 187500.0, 187500.0, 187500.0, 187500.0, 187500.0, 187500.0, 0.034, -0.028, 1.002, 192.0, 0.0, 0.0, 0.0, 0.0, 0.0, 0.0, 0.0, 0.0, 0.0, 1.6946820572586608E9, 0.0, 2023-09-14 11:00:57.258
141.0, -34.287575994441035, 187500.0, 187500.0, 187500.0, 187500.0, 187500.0, 187500.0, 187500.0, 0.034, -0.028, 1.002, 192.0, 0.0, 0.0, 0.0, 0.0, 0.0, 0.0, 0.0, 0.0, 0.0, 1.6946820572586849E9, 0.0, 2023-09-14 11:00:57.258
142.0, -38.95909058560021, 187500.0, 187500.0, 187500.0, 187500.0, 187500.0, 187500.0, 187500.0, 0.034, -0.028, 1.002, 192.0, 0.0, 0.0, 0.0, 0.0, 0.0, 0.0, 0.0, 0.0, 0.0, 1.6946820572587087E9, 0.0, 2023-09-14 11:00:57.258
143.0, -38.80262837441306, 187500.0, 187500.0, 187500.0, 187500.0, 187500.0, 187500.0, 187500.0, 0.034, -0.028, 1.002, 192.0, 0.0, 0.0, 0.0, 0.0, 0.0, 0.0, 0.0, 0.0, 0.0, 1.6946820572587328E9, 0.0, 2023-09-14 11:00:57.258
144.0, -33.77348587196897, 187500.0, 187500.0, 187500.0, 187500.0, 187500.0, 187500.0, 187500.0, 0.034, -0.028, 1.002, 192.0, 0.0, 0.0, 0.0, 0.0, 0.0, 0.0, 0.0, 0.0, 0.0, 1.6946820572588031E9, 0.0, 2023-09-14 11:00:57.258
145.0, -14.238061218030598, 187500.0, 187500.0, 187500.0, 187500.0, 187500.0, 187500.0, 187500.0, 0.034, -0.028, 1.002, 192.0, 0.0, 0.0, 0.0, 0.0, 0.0, 0.0, 0.0, 0.0, 0.0, 1.6946820572588277E9, 0.0, 2023-09-14 11:00:57.258
146.0, -8.806587315390983, 187500.0, 187500.0, 187500.0, 187500.0, 187500.0, 187500.0, 187500.0, 0.034, -0.028, 1.002, 192.0, 0.0, 0.0, 0.0, 0.0, 0.0, 0.0, 0.0, 0.0, 0.0, 1.694682057258852E9, 0.0, 2023-09-14 11:00:57.258
147.0, -9.186566971131203, 187500.0, 187500.0, 187500.0, 187500.0, 187500.0, 187500.0, 187500.0, 0.034, -0.028, 1.002, 192.0, 0.0, 0.0, 0.0, 0.0, 0.0, 0.0, 0.0, 0.0, 0.0, 1.694682057258876E9, 0.0, 2023-09-14 11:00:57.258
148.0, -14.506282151494284, 187500.0, 187500.0, 187500.0, 187500.0, 187500.0, 187500.0, 187500.0, 0.03, -0.024, 1.0, 192.0, 0.0, 240.0, 255.0, 64.0, 31.0, 64.0, 0.0, 0.0, 0.0, 1.6946820572589002E9, 0.0, 2023-09-14 11:00:57.258
149.0, -34.44403820562818, 187500.0, 187500.0, 187500.0, 187500.0, 187500.0, 187500.0, 187500.0, 0.03, -0.024, 1.0, 192.0, 0.0, 0.0, 0.0, 0.0, 0.0, 0.0, 0.0, 0.0, 0.0, 1.694682057258926E9, 0.0, 2023-09-14 11:00:57.258
150.0, -39.13790454124267, 187500.0, 187500.0, 187500.0, 187500.0, 187500.0, 187500.0, 187500.0, 0.03, -0.024, 1.0, 192.0, 0.0, 0.0, 0.0, 0.0, 0.0, 0.0, 0.0, 0.0, 0.0, 1.69468205725895E9, 0.0, 2023-09-14 11:00:57.258
151.0, -38.377945229762226, 187500.0, 187500.0, 187500.0, 187500.0, 187500.0, 187500.0, 187500.0, 0.03, -0.024, 1.0, 192.0, 0.0, 0.0, 0.0, 0.0, 0.0, 0.0, 0.0, 0.0, 0.0, 1.6946820572589743E9, 0.0, 2023-09-14 11:00:57.258
152.0, -33.505264938505285, 187500.0, 187500.0, 187500.0, 187500.0, 187500.0, 187500.0, 187500.0, 0.03, -0.024, 1.0, 192.0, 0.0, 0.0, 0.0, 0.0, 0.0, 0.0, 0.0, 0.0, 0.0, 1.6946820572589989E9, 0.0, 2023-09-14 11:00:57.258
153.0, -14.126302495754064, 187500.0, 187500.0, 187500.0, 187500.0, 187500.0, 187500.0, 187500.0, 0.03, -0.024, 1.0, 192.0, 0.0, 0.0, 0.0, 0.0, 0.0, 0.0, 0.0, 0.0, 0.0, 1.694682057259023E9, 0.0, 2023-09-14 11:00:57.259
154.0, -9.544194882416116, 187500.0, 187500.0, 187500.0, 187500.0, 187500.0, 187500.0, 187500.0, 0.03, -0.024, 1.0, 192.0, 0.0, 0.0, 0.0, 0.0, 0.0, 0.0, 0.0, 0.0, 0.0, 1.6946820572590473E9, 0.0, 2023-09-14 11:00:57.259
155.0, -9.343029182318352, 187500.0, 187500.0, 187500.0, 187500.0, 187500.0, 187500.0, 187500.0, 0.03, -0.024, 1.0, 192.0, 0.0, 0.0, 0.0, 0.0, 0.0, 0.0, 0.0, 0.0, 0.0, 1.6946820572590716E9, 0.0, 2023-09-14 11:00:57.259
156.0, -14.483930407038976, 187500.0, 187500.0, 187500.0, 187500.0, 187500.0, 187500.0, 187500.0, 0.03, -0.024, 1.0, 192.0, 0.0, 0.0, 0.0, 0.0, 0.0, 0.0, 0.0, 0.0, 0.0, 1.6946820572590957E9, 0.0, 2023-09-14 11:00:57.259
157.0, -34.287575994441035, 187500.0, 187500.0, 187500.0, 187500.0, 187500.0, 187500.0, 187500.0, 0.03, -0.024, 1.0, 192.0, 0.0, 0.0, 0.0, 0.0, 0.0, 0.0, 0.0, 0.0, 0.0, 1.6946820572591197E9, 0.0, 2023-09-14 11:00:57.259
158.0, -39.048497563421435, 187500.0, 187500.0, 187500.0, 187500.0, 187500.0, 187500.0, 187500.0, 0.038, -0.028, 1.004, 192.0, 1.0, 48.0, 255.0, 32.0, 31.0, 96.0, 0.0, 0.0, 0.0, 1.6946820572591465E9, 0.0, 2023-09-14 11:00:57.259
159.0, -39.00379407451082, 187500.0, 187500.0, 187500.0, 187500.0, 187500.0, 187500.0, 187500.0, 0.038, -0.028, 1.004, 192.0, 0.0, 0.0, 0.0, 0.0, 0.0, 0.0, 0.0, 0.0, 0.0, 1.694682057259246E9, 0.0, 2023-09-14 11:00:57.259
160.0, -33.92994808315612, 187500.0, 187500.0, 187500.0, 187500.0, 187500.0, 187500.0, 187500.0, 0.038, -0.028, 1.004, 192.0, 0.0, 0.0, 0.0, 0.0, 0.0, 0.0, 0.0, 0.0, 0.0, 1.6946820572592907E9, 0.0, 2023-09-14 11:00:57.259
161.0, -13.835729817835071, 187500.0, 187500.0, 187500.0, 187500.0, 187500.0, 187500.0, 187500.0, 0.038, -0.028, 1.004, 192.0, 0.0, 0.0, 0.0, 0.0, 0.0, 0.0, 0.0, 0.0, 0.0, 1.6946820572593336E9, 0.0, 2023-09-14 11:00:57.259
162.0, -9.141863482220588, 187500.0, 187500.0, 187500.0, 187500.0, 187500.0, 187500.0, 187500.0, 0.038, -0.028, 1.004, 192.0, 0.0, 0.0, 0.0, 0.0, 0.0, 0.0, 0.0, 0.0, 0.0, 1.6946820572593765E9, 0.0, 2023-09-14 11:00:57.259
163.0, -9.745360582513879, 187500.0, 187500.0, 187500.0, 187500.0, 187500.0, 187500.0, 187500.0, 0.038, -0.028, 1.004, 192.0, 0.0, 0.0, 0.0, 0.0, 0.0, 0.0, 0.0, 0.0, 0.0, 1.6946820572594197E9, 0.0, 2023-09-14 11:00:57.259
164.0, -15.154482740698189, 187500.0, 187500.0, 187500.0, 187500.0, 187500.0, 187500.0, 187500.0, 0.038, -0.028, 1.004, 192.0, 0.0, 0.0, 0.0, 0.0, 0.0, 0.0, 0.0, 0.0, 0.0, 1.6946820572594628E9, 0.0, 2023-09-14 11:00:57.259
165.0, -34.44403820562818, 187500.0, 187500.0, 187500.0, 187500.0, 187500.0, 187500.0, 187500.0, 0.038, -0.028, 1.004, 192.0, 0.0, 0.0, 0.0, 0.0, 0.0, 0.0, 0.0, 0.0, 0.0, 1.6946820572595055E9, 0.0, 2023-09-14 11:00:57.259
166.0, -38.95909058560021, 187500.0, 187500.0, 187500.0, 187500.0, 187500.0, 187500.0, 187500.0, 0.038, -0.028, 1.004, 192.0, 0.0, 0.0, 0.0, 0.0, 0.0, 0.0, 0.0, 0.0, 0.0, 1.6946820572595487E9, 0.0, 2023-09-14 11:00:57.259
167.0, -39.160256285697976, 187500.0, 187500.0, 187500.0, 187500.0, 187500.0, 187500.0, 187500.0, 0.038, -0.028, 1.004, 192.0, 0.0, 0.0, 0.0, 0.0, 0.0, 0.0, 0.0, 0.0, 0.0, 1.6946820572596486E9, 0.0, 2023-09-14 11:00:57.259
168.0, -34.01935506097735, 187500.0, 187500.0, 187500.0, 187500.0, 187500.0, 187500.0, 187500.0, 0.03, -0.026000000000000002, 1.002, 192.0, 0.0, 240.0, 255.0, 48.0, 31.0, 80.0, 0.0, 0.0, 0.0, 1.694682057259692E9, 0.0, 2023-09-14 11:00:57.259
169.0, -14.282764706941213, 187500.0, 187500.0, 187500.0, 187500.0, 187500.0, 187500.0, 187500.0, 0.03, -0.026000000000000002, 1.002, 192.0, 0.0, 0.0, 0.0, 0.0, 0.0, 0.0, 0.0, 0.0, 0.0, 1.6946820572597373E9, 0.0, 2023-09-14 11:00:57.259
170.0, -9.365380926773659, 187500.0, 187500.0, 187500.0, 187500.0, 187500.0, 187500.0, 187500.0, 0.03, -0.026000000000000002, 1.002, 192.0, 0.0, 0.0, 0.0, 0.0, 0.0, 0.0, 0.0, 0.0, 0.0, 1.6946820572597802E9, 0.0, 2023-09-14 11:00:57.259
171.0, -9.186566971131203, 187500.0, 187500.0, 187500.0, 187500.0, 187500.0, 187500.0, 187500.0, 0.03, -0.026000000000000002, 1.002, 192.0, 0.0, 0.0, 0.0, 0.0, 0.0, 0.0, 0.0, 0.0, 0.0, 1.694682057259823E9, 0.0, 2023-09-14 11:00:57.259
172.0, -14.327468195851827, 187500.0, 187500.0, 187500.0, 187500.0, 187500.0, 187500.0, 187500.0, 0.03, -0.026000000000000002, 1.002, 192.0, 0.0, 0.0, 0.0, 0.0, 0.0, 0.0, 0.0, 0.0, 0.0, 1.694682057259868E9, 0.0, 2023-09-14 11:00:57.259
173.0, -34.57814867236002, 187500.0, 187500.0, 187500.0, 187500.0, 187500.0, 187500.0, 187500.0, 0.03, -0.026000000000000002, 1.002, 192.0, 0.0, 0.0, 0.0, 0.0, 0.0, 0.0, 0.0, 0.0, 0.0, 1.6946820572599113E9, 0.0, 2023-09-14 11:00:57.259
174.0, -38.914387096689595, 187500.0, 187500.0, 187500.0, 187500.0, 187500.0, 187500.0, 187500.0, 0.03, -0.026000000000000002, 1.002, 192.0, 0.0, 0.0, 0.0, 0.0, 0.0, 0.0, 0.0, 0.0, 0.0, 1.6946820572600017E9, 0.0, 2023-09-14 11:00:57.260
175.0, -39.093201052332056, 187500.0, 187500.0, 187500.0, 187500.0, 187500.0, 187500.0, 187500.0, 0.03, -0.026000000000000002, 1.002, 192.0, 0.0, 0.0, 0.0, 0.0, 0.0, 0.0, 0.0, 0.0, 0.0, 1.6946820572600424E9, 0.0, 2023-09-14 11:00:57.260
176.0, -33.8628928497902, 187500.0, 187500.0, 187500.0, 187500.0, 187500.0, 187500.0, 187500.0, 0.03, -0.026000000000000002, 1.002, 192.0, 0.0, 0.0, 0.0, 0.0, 0.0, 0.0, 0.0, 0.0, 0.0, 1.6946820572600677E9, 0.0, 2023-09-14 11:00:57.260
177.0, -14.126302495754064, 187500.0, 187500.0, 187500.0, 187500.0, 187500.0, 187500.0, 187500.0, 0.03, -0.026000000000000002, 1.002, 192.0, 0.0, 0.0, 0.0, 0.0, 0.0, 0.0, 0.0, 0.0, 0.0, 1.694682057260092E9, 0.0, 2023-09-14 11:00:57.260
178.0, -9.298325693407739, 187500.0, 187500.0, 187500.0, 187500.0, 187500.0, 187500.0, 187500.0, 0.034, -0.02, 1.0, 192.0, 1.0, 16.0, 255.0, 96.0, 31.0, 64.0, 0.0, 0.0, 0.0, 1.694682057260116E9, 0.0, 2023-09-14 11:00:57.260
179.0, -9.544194882416116, 187500.0, 187500.0, 187500.0, 187500.0, 187500.0, 187500.0, 187500.0, 0.034, -0.02, 1.0, 192.0, 0.0, 0.0, 0.0, 0.0, 0.0, 0.0, 0.0, 0.0, 0.0, 1.6946820572601416E9, 0.0, 2023-09-14 11:00:57.260
180.0, -14.729799596047354, 187500.0, 187500.0, 187500.0, 187500.0, 187500.0, 187500.0, 187500.0, 0.034, -0.02, 1.0, 192.0, 0.0, 0.0, 0.0, 0.0, 0.0, 0.0, 0.0, 0.0, 0.0, 1.6946820572601721E9, 0.0, 2023-09-14 11:00:57.260
181.0, -34.33227948335165, 187500.0, 187500.0, 187500.0, 187500.0, 187500.0, 187500.0, 187500.0, 0.034, -0.02, 1.0, 192.0, 0.0, 0.0, 0.0, 0.0, 0.0, 0.0, 0.0, 0.0, 0.0, 1.6946820572601972E9, 0.0, 2023-09-14 11:00:57.260
182.0, -38.914387096689595, 187500.0, 187500.0, 187500.0, 187500.0, 187500.0, 187500.0, 187500.0, 0.034, -0.02, 1.0, 192.0, 0.0, 0.0, 0.0, 0.0, 0.0, 0.0, 0.0, 0.0, 0.0, 1.694682057260221E9, 0.0, 2023-09-14 11:00:57.260
183.0, -38.62381441877061, 187500.0, 187500.0, 187500.0, 187500.0, 187500.0, 187500.0, 187500.0, 0.034, -0.02, 1.0, 192.0, 0.0, 0.0, 0.0, 0.0, 0.0, 0.0, 0.0, 0.0, 0.0, 1.6946820572602453E9, 0.0, 2023-09-14 11:00:57.260
184.0, -33.66172714969244, 187500.0, 187500.0, 187500.0, 187500.0, 187500.0, 187500.0, 187500.0, 0.034, -0.02, 1.0, 192.0, 0.0, 0.0, 0.0, 0.0, 0.0, 0.0, 0.0, 0.0, 0.0, 1.6946820572602694E9, 0.0, 2023-09-14 11:00:57.260
185.0, -14.327468195851827, 187500.0, 187500.0, 187500.0, 187500.0, 187500.0, 187500.0, 187500.0, 0.034, -0.02, 1.0, 192.0, 0.0, 0.0, 0.0, 0.0, 0.0, 0.0, 0.0, 0.0, 0.0, 1.6946820572602932E9, 0.0, 2023-09-14 11:00:57.260
186.0, -9.320677437863045, 187500.0, 187500.0, 187500.0, 187500.0, 187500.0, 187500.0, 187500.0, 0.034, -0.02, 1.0, 192.0, 0.0, 0.0, 0.0, 0.0, 0.0, 0.0, 0.0, 0.0, 0.0, 1.694682057260317E9, 0.0, 2023-09-14 11:00:57.260
187.0, -9.52184313796081, 187500.0, 187500.0, 187500.0, 187500.0, 187500.0, 187500.0, 187500.0, 0.034, -0.02, 1.0, 192.0, 0.0, 0.0, 0.0, 0.0, 0.0, 0.0, 0.0, 0.0, 0.0, 1.694682057260341E9, 0.0, 2023-09-14 11:00:57.260
188.0, -14.886261807234504, 187500.0, 187500.0, 187500.0, 187500.0, 187500.0, 187500.0, 187500.0, 0.032, -0.018000000000000002, 1.008, 192.0, 1.0, 0.0, 255.0, 112.0, 31.0, 128.0, 0.0, 0.0, 0.0, 1.6946820572603648E9, 0.0, 2023-09-14 11:00:57.260
189.0, -34.555796927904716, 187500.0, 187500.0, 187500.0, 187500.0, 187500.0, 187500.0, 187500.0, 0.032, -0.018000000000000002, 1.008, 192.0, 0.0, 0.0, 0.0, 0.0, 0.0, 0.0, 0.0, 0.0, 0.0, 1.69468205726039E9, 0.0, 2023-09-14 11:00:57.260
190.0, -38.80262837441306, 187500.0, 187500.0, 187500.0, 187500.0, 187500.0, 187500.0, 187500.0, 0.032, -0.018000000000000002, 1.008, 192.0, 0.0, 0.0, 0.0, 0.0, 0.0, 0.0, 0.0, 0.0, 0.0, 1.6946820572604473E9, 0.0, 2023-09-14 11:00:57.260
191.0, -38.847331863323674, 187500.0, 187500.0, 187500.0, 187500.0, 187500.0, 187500.0, 187500.0, 0.032, -0.018000000000000002, 1.008, 192.0, 0.0, 0.0, 0.0, 0.0, 0.0, 0.0, 0.0, 0.0, 0.0, 1.6946820572604716E9, 0.0, 2023-09-14 11:00:57.260
192.0, -34.1758172721645, 187500.0, 187500.0, 187500.0, 187500.0, 187500.0, 187500.0, 187500.0, 0.032, -0.018000000000000002, 1.008, 192.0, 0.0, 0.0, 0.0, 0.0, 0.0, 0.0, 0.0, 0.0, 0.0, 1.6946820572604957E9, 0.0, 2023-09-14 11:00:57.260
193.0, -14.394523429217749, 187500.0, 187500.0, 187500.0, 187500.0, 187500.0, 187500.0, 187500.0, 0.032, -0.018000000000000002, 1.008, 192.0, 0.0, 0.0, 0.0, 0.0, 0.0, 0.0, 0.0, 0.0, 0.0, 1.6946820572605193E9, 0.0, 2023-09-14 11:00:57.260
194.0, -9.030104759944054, 187500.0, 187500.0, 187500.0, 187500.0, 187500.0, 187500.0, 187500.0, 0.032, -0.018000000000000002, 1.008, 192.0, 0.0, 0.0, 0.0, 0.0, 0.0, 0.0, 0.0, 0.0, 0.0, 1.694682057260543E9, 0.0, 2023-09-14 11:00:57.260
195.0, -8.851290804301597, 187500.0, 187500.0, 187500.0, 187500.0, 187500.0, 187500.0, 187500.0, 0.032, -0.018000000000000002, 1.008, 192.0, 0.0, 0.0, 0.0, 0.0, 0.0, 0.0, 0.0, 0.0, 0.0, 1.694682057260567E9, 0.0, 2023-09-14 11:00:57.260
196.0, -14.461578662583669, 187500.0, 187500.0, 187500.0, 187500.0, 187500.0, 187500.0, 187500.0, 0.032, -0.018000000000000002, 1.008, 192.0, 0.0, 0.0, 0.0, 0.0, 0.0, 0.0, 0.0, 0.0, 0.0, 1.6946820572605913E9, 0.0, 2023-09-14 11:00:57.260
197.0, -34.24287250553042, 187500.0, 187500.0, 187500.0, 187500.0, 187500.0, 187500.0, 187500.0, 0.032, -0.018000000000000002, 1.008, 192.0, 0.0, 0.0, 0.0, 0.0, 0.0, 0.0, 0.0, 0.0, 0.0, 1.6946820572606156E9, 0.0, 2023-09-14 11:00:57.260
198.0, -38.6014626743153, 187500.0, 187500.0, 187500.0, 187500.0, 187500.0, 187500.0, 187500.0, 0.032, -0.024, 1.004, 192.0, 1.0, 0.0, 255.0, 64.0, 31.0, 96.0, 0.0, 0.0, 0.0, 1.6946820572606397E9, 0.0, 2023-09-14 11:00:57.260
199.0, -38.73557314104714, 187500.0, 187500.0, 187500.0, 187500.0, 187500.0, 187500.0, 187500.0, 0.032, -0.024, 1.004, 192.0, 0.0, 0.0, 0.0, 0.0, 0.0, 0.0, 0.0, 0.0, 0.0, 1.6946820572606645E9, 0.0, 2023-09-14 11:00:57.260
200.0, -33.34880272731814, 187500.0, 187500.0, 187500.0, 187500.0, 187500.0, 187500.0, 187500.0, 0.032, -0.024, 1.004, 192.0, 0.0, 0.0, 0.0, 0.0, 0.0, 0.0, 0.0, 0.0, 0.0, 1.694682057260688E9, 0.0, 2023-09-14 11:00:57.260
201.0, -13.880433306745687, 187500.0, 187500.0, 187500.0, 187500.0, 187500.0, 187500.0, 187500.0, 0.032, -0.024, 1.004, 192.0, 0.0, 0.0, 0.0, 0.0, 0.0, 0.0, 0.0, 0.0, 0.0, 1.694682057260712E9, 0.0, 2023-09-14 11:00:57.260
202.0, -9.030104759944054, 187500.0, 187500.0, 187500.0, 187500.0, 187500.0, 187500.0, 187500.0, 0.032, -0.024, 1.004, 192.0, 0.0, 0.0, 0.0, 0.0, 0.0, 0.0, 0.0, 0.0, 0.0, 1.694682057260736E9, 0.0, 2023-09-14 11:00:57.260
203.0, -9.275973948952432, 187500.0, 187500.0, 187500.0, 187500.0, 187500.0, 187500.0, 187500.0, 0.032, -0.024, 1.004, 192.0, 0.0, 0.0, 0.0, 0.0, 0.0, 0.0, 0.0, 0.0, 0.0, 1.69468205726076E9, 0.0, 2023-09-14 11:00:57.260
204.0, -14.30511645139652, 187500.0, 187500.0, 187500.0, 187500.0, 187500.0, 187500.0, 187500.0, 0.032, -0.024, 1.004, 192.0, 0.0, 0.0, 0.0, 0.0, 0.0, 0.0, 0.0, 0.0, 0.0, 1.694682057260784E9, 0.0, 2023-09-14 11:00:57.260
205.0, -33.99700331652204, 187500.0, 187500.0, 187500.0, 187500.0, 187500.0, 187500.0, 187500.0, 0.032, -0.024, 1.004, 192.0, 0.0, 0.0, 0.0, 0.0, 0.0, 0.0, 0.0, 0.0, 0.0, 1.694682057260832E9, 0.0, 2023-09-14 11:00:57.260
206.0, -38.40029697421753, 187500.0, 187500.0, 187500.0, 187500.0, 187500.0, 187500.0, 187500.0, 0.032, -0.024, 1.004, 192.0, 0.0, 0.0, 0.0, 0.0, 0.0, 0.0, 0.0, 0.0, 0.0, 1.6946820572608564E9, 0.0, 2023-09-14 11:00:57.260
207.0, -38.48970395203876, 187500.0, 187500.0, 187500.0, 187500.0, 187500.0, 187500.0, 187500.0, 0.03, -0.024, 1.0, 192.0, 0.0, 240.0, 255.0, 64.0, 31.0, 64.0, 0.0, 0.0, 0.0, 1.6946820572608802E9, 0.0, 2023-09-14 11:00:57.260
208.0, -33.39350621622875, 187500.0, 187500.0, 187500.0, 187500.0, 187500.0, 187500.0, 187500.0, 0.03, -0.024, 1.0, 192.0, 0.0, 0.0, 0.0, 0.0, 0.0, 0.0, 0.0, 0.0, 0.0, 1.6946820572609053E9, 0.0, 2023-09-14 11:00:57.260
209.0, -14.103950751298756, 187500.0, 187500.0, 187500.0, 187500.0, 187500.0, 187500.0, 187500.0, 0.03, -0.024, 1.0, 192.0, 0.0, 0.0, 0.0, 0.0, 0.0, 0.0, 0.0, 0.0, 0.0, 1.694682057260929E9, 0.0, 2023-09-14 11:00:57.260
210.0, -9.387732671228965, 187500.0, 187500.0, 187500.0, 187500.0, 187500.0, 187500.0, 187500.0, 0.03, -0.024, 1.0, 192.0, 0.0, 0.0, 0.0, 0.0, 0.0, 0.0, 0.0, 0.0, 0.0, 1.694682057260954E9, 0.0, 2023-09-14 11:00:57.260
211.0, -9.365380926773659, 187500.0, 187500.0, 187500.0, 187500.0, 187500.0, 187500.0, 187500.0, 0.03, -0.024, 1.0, 192.0, 0.0, 0.0, 0.0, 0.0, 0.0, 0.0, 0.0, 0.0, 0.0, 1.6946820572609785E9, 0.0, 2023-09-14 11:00:57.260
212.0, -14.841558318323889, 187500.0, 187500.0, 187500.0, 187500.0, 187500.0, 187500.0, 187500.0, 0.03, -0.024, 1.0, 192.0, 0.0, 0.0, 0.0, 0.0, 0.0, 0.0, 0.0, 0.0, 0.0, 1.6946820572610023E9, 0.0, 2023-09-14 11:00:57.261
213.0, -34.44403820562818, 187500.0, 187500.0, 187500.0, 187500.0, 187500.0, 187500.0, 187500.0, 0.03, -0.024, 1.0, 192.0, 0.0, 0.0, 0.0, 0.0, 0.0, 0.0, 0.0, 0.0, 0.0, 1.6946820572610264E9, 0.0, 2023-09-14 11:00:57.261
214.0, -38.847331863323674, 187500.0, 187500.0, 187500.0, 187500.0, 187500.0, 187500.0, 187500.0, 0.03, -0.024, 1.0, 192.0, 0.0, 0.0, 0.0, 0.0, 0.0, 0.0, 0.0, 0.0, 0.0, 1.6946820572610505E9, 0.0, 2023-09-14 11:00:57.261
215.0, -39.13790454124267, 187500.0, 187500.0, 187500.0, 187500.0, 187500.0, 187500.0, 187500.0, 0.03, -0.024, 1.0, 192.0, 0.0, 0.0, 0.0, 0.0, 0.0, 0.0, 0.0, 0.0, 0.0, 1.6946820572610743E9, 0.0, 2023-09-14 11:00:57.261
216.0, -33.48291319404998, 187500.0, 187500.0, 187500.0, 187500.0, 187500.0, 187500.0, 187500.0, 0.03, -0.024, 1.0, 192.0, 0.0, 0.0, 0.0, 0.0, 0.0, 0.0, 0.0, 0.0, 0.0, 1.694682057261099E9, 0.0, 2023-09-14 11:00:57.261
217.0, -13.791026328924458, 187500.0, 187500.0, 187500.0, 187500.0, 187500.0, 187500.0, 187500.0, 0.03, -0.02, 1.002, 192.0, 0.0, 240.0, 255.0, 96.0, 31.0, 80.0, 0.0, 0.0, 0.0, 1.694682057261123E9, 0.0, 2023-09-14 11:00:57.261
218.0, -9.365380926773659, 187500.0, 187500.0, 187500.0, 187500.0, 187500.0, 187500.0, 187500.0, 0.03, -0.02, 1.002, 192.0, 0.0, 0.0, 0.0, 0.0, 0.0, 0.0, 0.0, 0.0, 0.0, 1.694682057261148E9, 0.0, 2023-09-14 11:00:57.261
219.0, -9.43243616013958, 187500.0, 187500.0, 187500.0, 187500.0, 187500.0, 187500.0, 187500.0, 0.03, -0.02, 1.002, 192.0, 0.0, 0.0, 0.0, 0.0, 0.0, 0.0, 0.0, 0.0, 0.0, 1.6946820572611914E9, 0.0, 2023-09-14 11:00:57.261
220.0, -15.06507576287696, 187500.0, 187500.0, 187500.0, 187500.0, 187500.0, 187500.0, 187500.0, 0.03, -0.02, 1.002, 192.0, 0.0, 0.0, 0.0, 0.0, 0.0, 0.0, 0.0, 0.0, 0.0, 1.6946820572612855E9, 0.0, 2023-09-14 11:00:57.261
221.0, -34.354631227806955, 187500.0, 187500.0, 187500.0, 187500.0, 187500.0, 187500.0, 187500.0, 0.03, -0.02, 1.002, 192.0, 0.0, 0.0, 0.0, 0.0, 0.0, 0.0, 0.0, 0.0, 0.0, 1.6946820572613304E9, 0.0, 2023-09-14 11:00:57.261
222.0, -38.713221396591834, 187500.0, 187500.0, 187500.0, 187500.0, 187500.0, 187500.0, 187500.0, 0.03, -0.02, 1.002, 192.0, 0.0, 0.0, 0.0, 0.0, 0.0, 0.0, 0.0, 0.0, 0.0, 1.6946820572613735E9, 0.0, 2023-09-14 11:00:57.261
223.0, -38.780276629957754, 187500.0, 187500.0, 187500.0, 187500.0, 187500.0, 187500.0, 187500.0, 0.03, -0.02, 1.002, 192.0, 0.0, 0.0, 0.0, 0.0, 0.0, 0.0, 0.0, 0.0, 0.0, 1.6946820572614176E9, 0.0, 2023-09-14 11:00:57.261
224.0, -33.97465157206673, 187500.0, 187500.0, 187500.0, 187500.0, 187500.0, 187500.0, 187500.0, 0.03, -0.02, 1.002, 192.0, 0.0, 0.0, 0.0, 0.0, 0.0, 0.0, 0.0, 0.0, 0.0, 1.6946820572614625E9, 0.0, 2023-09-14 11:00:57.261
225.0, -14.103950751298756, 187500.0, 187500.0, 187500.0, 187500.0, 187500.0, 187500.0, 187500.0, 0.03, -0.02, 1.002, 192.0, 0.0, 0.0, 0.0, 0.0, 0.0, 0.0, 0.0, 0.0, 0.0, 1.6946820577380695E9, 0.0, 2023-09-14 11:00:57.738
226.0, -9.700657093603265, 187500.0, 187500.0, 187500.0, 187500.0, 187500.0, 187500.0, 187500.0, 0.03, -0.02, 1.002, 192.0, 0.0, 0.0, 0.0, 0.0, 0.0, 0.0, 0.0, 0.0, 0.0, 1.6946820577384126E9, 0.0, 2023-09-14 11:00:57.738
227.0, -9.186566971131203, 187500.0, 187500.0, 187500.0, 187500.0, 187500.0, 187500.0, 187500.0, 0.032, -0.02, 1.006, 192.0, 1.0, 0.0, 255.0, 96.0, 31.0, 112.0, 0.0, 0.0, 0.0, 1.6946820577384987E9, 0.0, 2023-09-14 11:00:57.738
228.0, -14.282764706941213, 187500.0, 187500.0, 187500.0, 187500.0, 187500.0, 187500.0, 187500.0, 0.032, -0.02, 1.006, 192.0, 0.0, 0.0, 0.0, 0.0, 0.0, 0.0, 0.0, 0.0, 0.0, 1.694682057738568E9, 0.0, 2023-09-14 11:00:57.738
229.0, -34.53344518344941, 187500.0, 187500.0, 187500.0, 187500.0, 187500.0, 187500.0, 187500.0, 0.032, -0.02, 1.006, 192.0, 0.0, 0.0, 0.0, 0.0, 0.0, 0.0, 0.0, 0.0, 0.0, 1.694682057738623E9, 0.0, 2023-09-14 11:00:57.738
230.0, -38.26618650748569, 187500.0, 187500.0, 187500.0, 187500.0, 187500.0, 187500.0, 187500.0, 0.032, -0.02, 1.006, 192.0, 0.0, 0.0, 0.0, 0.0, 0.0, 0.0, 0.0, 0.0, 0.0, 1.6946820577386765E9, 0.0, 2023-09-14 11:00:57.738
231.0, -38.46735220758345, 187500.0, 187500.0, 187500.0, 187500.0, 187500.0, 187500.0, 187500.0, 0.032, -0.02, 1.006, 192.0, 0.0, 0.0, 0.0, 0.0, 0.0, 0.0, 0.0, 0.0, 0.0, 1.6946820577387328E9, 0.0, 2023-09-14 11:00:57.738
232.0, -33.66172714969244, 187500.0, 187500.0, 187500.0, 187500.0, 187500.0, 187500.0, 187500.0, 0.032, -0.02, 1.006, 192.0, 0.0, 0.0, 0.0, 0.0, 0.0, 0.0, 0.0, 0.0, 0.0, 1.6946820577387846E9, 0.0, 2023-09-14 11:00:57.738
233.0, -14.103950751298756, 187500.0, 187500.0, 187500.0, 187500.0, 187500.0, 187500.0, 187500.0, 0.032, -0.02, 1.006, 192.0, 0.0, 0.0, 0.0, 0.0, 0.0, 0.0, 0.0, 0.0, 0.0, 1.6946820577388291E9, 0.0, 2023-09-14 11:00:57.738
234.0, -9.20891871558651, 187500.0, 187500.0, 187500.0, 187500.0, 187500.0, 187500.0, 187500.0, 0.032, -0.02, 1.006, 192.0, 0.0, 0.0, 0.0, 0.0, 0.0, 0.0, 0.0, 0.0, 0.0, 1.6946820577388697E9, 0.0, 2023-09-14 11:00:57.738
235.0, -9.298325693407739, 187500.0, 187500.0, 187500.0, 187500.0, 187500.0, 187500.0, 187500.0, 0.032, -0.02, 1.006, 192.0, 0.0, 0.0, 0.0, 0.0, 0.0, 0.0, 0.0, 0.0, 0.0, 1.6946820577389052E9, 0.0, 2023-09-14 11:00:57.738
236.0, -13.612212373282, 187500.0, 187500.0, 187500.0, 187500.0, 187500.0, 187500.0, 187500.0, 0.032, -0.02, 1.006, 192.0, 0.0, 0.0, 0.0, 0.0, 0.0, 0.0, 0.0, 0.0, 0.0, 1.694682057739364E9, 0.0, 2023-09-14 11:00:57.739
237.0, -33.66172714969244, 187500.0, 187500.0, 187500.0, 187500.0, 187500.0, 187500.0, 187500.0, 0.034, -0.022, 1.01, 192.0, 1.0, 16.0, 255.0, 80.0, 31.0, 144.0, 0.0, 0.0, 0.0, 1.6946820577394235E9, 0.0, 2023-09-14 11:00:57.739
238.0, -39.11555279678736, 187500.0, 187500.0, 187500.0, 187500.0, 187500.0, 187500.0, 187500.0, 0.034, -0.022, 1.01, 192.0, 0.0, 0.0, 0.0, 0.0, 0.0, 0.0, 0.0, 0.0, 0.0, 1.6946820577394712E9, 0.0, 2023-09-14 11:00:57.739
239.0, -38.82498011886837, 187500.0, 187500.0, 187500.0, 187500.0, 187500.0, 187500.0, 187500.0, 0.034, -0.022, 1.01, 192.0, 0.0, 0.0, 0.0, 0.0, 0.0, 0.0, 0.0, 0.0, 0.0, 1.6946820577395215E9, 0.0, 2023-09-14 11:00:57.739
240.0, -33.5499684274159, 187500.0, 187500.0, 187500.0, 187500.0, 187500.0, 187500.0, 187500.0, 0.034, -0.022, 1.01, 192.0, 0.0, 0.0, 0.0, 0.0, 0.0, 0.0, 0.0, 0.0, 0.0, 1.6946820577395985E9, 0.0, 2023-09-14 11:00:57.739
241.0, -13.791026328924458, 187500.0, 187500.0, 187500.0, 187500.0, 187500.0, 187500.0, 187500.0, 0.034, -0.022, 1.01, 192.0, 0.0, 0.0, 0.0, 0.0, 0.0, 0.0, 0.0, 0.0, 0.0, 1.69468205773964E9, 0.0, 2023-09-14 11:00:57.739
242.0, -9.298325693407739, 187500.0, 187500.0, 187500.0, 187500.0, 187500.0, 187500.0, 187500.0, 0.034, -0.022, 1.01, 192.0, 0.0, 0.0, 0.0, 0.0, 0.0, 0.0, 0.0, 0.0, 0.0, 1.6946820577396796E9, 0.0, 2023-09-14 11:00:57.739
243.0, -9.343029182318352, 187500.0, 187500.0, 187500.0, 187500.0, 187500.0, 187500.0, 187500.0, 0.034, -0.022, 1.01, 192.0, 0.0, 0.0, 0.0, 0.0, 0.0, 0.0, 0.0, 0.0, 0.0, 1.6946820577397225E9, 0.0, 2023-09-14 11:00:57.739
244.0, -14.953317040600425, 187500.0, 187500.0, 187500.0, 187500.0, 187500.0, 187500.0, 187500.0, 0.034, -0.022, 1.01, 192.0, 0.0, 0.0, 0.0, 0.0, 0.0, 0.0, 0.0, 0.0, 0.0, 1.6946820577397635E9, 0.0, 2023-09-14 11:00:57.739
245.0, -34.5110934389941, 187500.0, 187500.0, 187500.0, 187500.0, 187500.0, 187500.0, 187500.0, 0.034, -0.022, 1.01, 192.0, 0.0, 0.0, 0.0, 0.0, 0.0, 0.0, 0.0, 0.0, 0.0, 1.6946820577398024E9, 0.0, 2023-09-14 11:00:57.739
246.0, -38.46735220758345, 187500.0, 187500.0, 187500.0, 187500.0, 187500.0, 187500.0, 187500.0, 0.034, -0.022, 1.01, 192.0, 0.0, 0.0, 0.0, 0.0, 0.0, 0.0, 0.0, 0.0, 0.0, 1.6946820577398467E9, 0.0, 2023-09-14 11:00:57.739
247.0, -38.847331863323674, 187500.0, 187500.0, 187500.0, 187500.0, 187500.0, 187500.0, 187500.0, 0.032, -0.022, 1.004, 192.0, 1.0, 0.0, 255.0, 80.0, 31.0, 96.0, 0.0, 0.0, 0.0, 1.694682057739899E9, 0.0, 2023-09-14 11:00:57.739
248.0, -32.87941609375669, 187500.0, 187500.0, 187500.0, 187500.0, 187500.0, 187500.0, 187500.0, 0.032, -0.022, 1.004, 192.0, 0.0, 0.0, 0.0, 0.0, 0.0, 0.0, 0.0, 0.0, 0.0, 1.694682057739942E9, 0.0, 2023-09-14 11:00:57.739
249.0, -13.947488540111607, 187500.0, 187500.0, 187500.0, 187500.0, 187500.0, 187500.0, 187500.0, 0.032, -0.022, 1.004, 192.0, 0.0, 0.0, 0.0, 0.0, 0.0, 0.0, 0.0, 0.0, 0.0, 1.6946820577399828E9, 0.0, 2023-09-14 11:00:57.739
250.0, -9.298325693407739, 187500.0, 187500.0, 187500.0, 187500.0, 187500.0, 187500.0, 187500.0, 0.032, -0.022, 1.004, 192.0, 0.0, 0.0, 0.0, 0.0, 0.0, 0.0, 0.0, 0.0, 0.0, 1.694682057740023E9, 0.0, 2023-09-14 11:00:57.740
251.0, -9.253622204497123, 187500.0, 187500.0, 187500.0, 187500.0, 187500.0, 187500.0, 187500.0, 0.032, -0.022, 1.004, 192.0, 0.0, 0.0, 0.0, 0.0, 0.0, 0.0, 0.0, 0.0, 0.0, 1.6946820577401333E9, 0.0, 2023-09-14 11:00:57.740
252.0, -14.68509610713674, 187500.0, 187500.0, 187500.0, 187500.0, 187500.0, 187500.0, 187500.0, 0.032, -0.022, 1.004, 192.0, 0.0, 0.0, 0.0, 0.0, 0.0, 0.0, 0.0, 0.0, 0.0, 1.6946820577401772E9, 0.0, 2023-09-14 11:00:57.740
253.0, -34.39933471671757, 187500.0, 187500.0, 187500.0, 187500.0, 187500.0, 187500.0, 187500.0, 0.032, -0.022, 1.004, 192.0, 0.0, 0.0, 0.0, 0.0, 0.0, 0.0, 0.0, 0.0, 0.0, 1.694682057740219E9, 0.0, 2023-09-14 11:00:57.740
254.0, -38.914387096689595, 187500.0, 187500.0, 187500.0, 187500.0, 187500.0, 187500.0, 187500.0, 0.032, -0.022, 1.004, 192.0, 0.0, 0.0, 0.0, 0.0, 0.0, 0.0, 0.0, 0.0, 0.0, 1.6946820577402616E9, 0.0, 2023-09-14 11:00:57.740
255.0, -38.6014626743153, 187500.0, 187500.0, 187500.0, 187500.0, 187500.0, 187500.0, 187500.0, 0.032, -0.022, 1.004, 192.0, 0.0, 0.0, 0.0, 0.0, 0.0, 0.0, 0.0, 0.0, 0.0, 1.6946820577403042E9, 0.0, 2023-09-14 11:00:57.740
0.0, -33.48291319404998, 187500.0, 187500.0, 187500.0, 187500.0, 187500.0, 187500.0, 187500.0, 0.032, -0.022, 1.004, 192.0, 0.0, 0.0, 0.0, 0.0, 0.0, 0.0, 0.0, 0.0, 0.0, 1.6946820577403512E9, 0.0, 2023-09-14 11:00:57.740
1.0, -13.746322840013844, 187500.0, 187500.0, 187500.0, 187500.0, 187500.0, 187500.0, 187500.0, 0.028, -0.018000000000000002, 1.004, 192.0, 0.0, 224.0, 255.0, 112.0, 31.0, 96.0, 0.0, 0.0, 0.0, 1.6946820577404013E9, 0.0, 2023-09-14 11:00:57.740
2.0, -9.655953604692652, 187500.0, 187500.0, 187500.0, 187500.0, 187500.0, 187500.0, 187500.0, 0.028, -0.018000000000000002, 1.004, 192.0, 0.0, 0.0, 0.0, 0.0, 0.0, 0.0, 0.0, 0.0, 0.0, 1.694682057740455E9, 0.0, 2023-09-14 11:00:57.740
3.0, -9.477139649050194, 187500.0, 187500.0, 187500.0, 187500.0, 187500.0, 187500.0, 187500.0, 0.028, -0.018000000000000002, 1.004, 192.0, 0.0, 0.0, 0.0, 0.0, 0.0, 0.0, 0.0, 0.0, 0.0, 1.6946820577405047E9, 0.0, 2023-09-14 11:00:57.740
4.0, -14.752151340502662, 187500.0, 187500.0, 187500.0, 187500.0, 187500.0, 187500.0, 187500.0, 0.028, -0.018000000000000002, 1.004, 192.0, 0.0, 0.0, 0.0, 0.0, 0.0, 0.0, 0.0, 0.0, 0.0, 1.6946820577405496E9, 0.0, 2023-09-14 11:00:57.740
5.0, -33.99700331652204, 187500.0, 187500.0, 187500.0, 187500.0, 187500.0, 187500.0, 187500.0, 0.028, -0.018000000000000002, 1.004, 192.0, 0.0, 0.0, 0.0, 0.0, 0.0, 0.0, 0.0, 0.0, 0.0, 1.6946820577405913E9, 0.0, 2023-09-14 11:00:57.740
6.0, -38.53440744094937, 187500.0, 187500.0, 187500.0, 187500.0, 187500.0, 187500.0, 187500.0, 0.028, -0.018000000000000002, 1.004, 192.0, 0.0, 0.0, 0.0, 0.0, 0.0, 0.0, 0.0, 0.0, 0.0, 1.694682057740636E9, 0.0, 2023-09-14 11:00:57.740
7.0, -39.02614581896613, 187500.0, 187500.0, 187500.0, 187500.0, 187500.0, 187500.0, 187500.0, 0.028, -0.018000000000000002, 1.004, 192.0, 0.0, 0.0, 0.0, 0.0, 0.0, 0.0, 0.0, 0.0, 0.0, 1.6946820577406847E9, 0.0, 2023-09-14 11:00:57.740
8.0, -33.97465157206673, 187500.0, 187500.0, 187500.0, 187500.0, 187500.0, 187500.0, 187500.0, 0.028, -0.018000000000000002, 1.004, 192.0, 0.0, 0.0, 0.0, 0.0, 0.0, 0.0, 0.0, 0.0, 0.0, 1.6946820577407267E9, 0.0, 2023-09-14 11:00:57.740
9.0, -14.126302495754064, 187500.0, 187500.0, 187500.0, 187500.0, 187500.0, 187500.0, 187500.0, 0.028, -0.018000000000000002, 1.004, 192.0, 0.0, 0.0, 0.0, 0.0, 0.0, 0.0, 0.0, 0.0, 0.0, 1.6946820577407684E9, 0.0, 2023-09-14 11:00:57.740
10.0, -9.320677437863045, 187500.0, 187500.0, 187500.0, 187500.0, 187500.0, 187500.0, 187500.0, 0.028, -0.018000000000000002, 1.004, 192.0, 0.0, 0.0, 0.0, 0.0, 0.0, 0.0, 0.0, 0.0, 0.0, 1.6946820577409E9, 0.0, 2023-09-14 11:00:57.740
11.0, -9.320677437863045, 187500.0, 187500.0, 187500.0, 187500.0, 187500.0, 187500.0, 187500.0, 0.034, -0.02, 1.01, 192.0, 1.0, 16.0, 255.0, 96.0, 31.0, 144.0, 0.0, 0.0, 0.0, 1.6946820577409408E9, 0.0, 2023-09-14 11:00:57.740
