%OpenBCI Raw EXG Data
%Number of channels = 8
%Sample Rate = 250 Hz
%Board = OpenBCI_GUI$BoardCytonSerial
Sample Index, EXG Channel 0, EXG Channel 1, EXG Channel 2, EXG Channel 3, EXG Channel 4, EXG Channel 5, EXG Channel 6, EXG Channel 7, Accel Channel 0, Accel Channel 1, Accel Channel 2, Other, Other, Other, Other, Other, Other, Other, Analog Channel 0, Analog Channel 1, Analog Channel 2, Timestamp, Other, Timestamp (Formatted)
0.0, -20.608308387793112, 187500.0, 187500.0, 187500.0, 187500.0, 187500.0, 187500.0, 187500.0, 0.014, -0.01, 0.5, 192.0, 0.0, 112.0, 255.0, 176.0, 15.0, 160.0, 0.0, 0.0, 0.0, 1.6946808987636352E9, 0.0, 2023-09-14 10:41:38.763
1.0, -15.869738563268015, 187500.0, 187500.0, 187500.0, 187500.0, 187500.0, 187500.0, 187500.0, 0.014, -0.01, 0.5, 192.0, 0.0, 0.0, 0.0, 0.0, 0.0, 0.0, 0.0, 0.0, 0.0, 1.6946808987636735E9, 0.0, 2023-09-14 10:41:38.763
2.0, -15.892090307723322, 187500.0, 187500.0, 187500.0, 187500.0, 187500.0, 187500.0, 187500.0, 0.014, -0.01, 0.5, 192.0, 0.0, 0.0, 0.0, 0.0, 0.0, 0.0, 0.0, 0.0, 0.0, 1.6946808987637148E9, 0.0, 2023-09-14 10:41:38.763
3.0, -20.720067110069646, 187500.0, 187500.0, 187500.0, 187500.0, 187500.0, 187500.0, 187500.0, 0.014, -0.01, 0.5, 192.0, 0.0, 0.0, 0.0, 0.0, 0.0, 0.0, 0.0, 0.0, 0.0, 1.6946808987637784E9, 0.0, 2023-09-14 10:41:38.763
4.0, -39.67434640817004, 187500.0, 187500.0, 187500.0, 187500.0, 187500.0, 187500.0, 187500.0, 0.014, -0.01, 0.5, 192.0, 0.0, 0.0, 0.0, 0.0, 0.0, 0.0, 0.0, 0.0, 0.0, 1.6946808987638383E9, 0.0, 2023-09-14 10:41:38.763
5.0, -43.96588134358899, 187500.0, 187500.0, 187500.0, 187500.0, 187500.0, 187500.0, 187500.0, 0.014, -0.01, 0.5, 192.0, 0.0, 0.0, 0.0, 0.0, 0.0, 0.0, 0.0, 0.0, 0.0, 1.6946808987638648E9, 0.0, 2023-09-14 10:41:38.763
6.0, -43.51884645448285, 187500.0, 187500.0, 187500.0, 187500.0, 187500.0, 187500.0, 187500.0, 0.014, -0.01, 0.5, 192.0, 0.0, 0.0, 0.0, 0.0, 0.0, 0.0, 0.0, 0.0, 0.0, 1.6946808987638874E9, 0.0, 2023-09-14 10:41:38.763
7.0, -38.57911092985999, 187500.0, 187500.0, 187500.0, 187500.0, 187500.0, 187500.0, 187500.0, 0.02, -0.014, 0.756, 192.0, 0.0, 160.0, 255.0, 144.0, 23.0, 160.0, 0.0, 0.0, 0.0, 1.6946808987639096E9, 0.0, 2023-09-14 10:41:38.763
8.0, -20.675363621159033, 187500.0, 187500.0, 187500.0, 187500.0, 187500.0, 187500.0, 187500.0, 0.02, -0.014, 0.756, 192.0, 0.0, 0.0, 0.0, 0.0, 0.0, 0.0, 0.0, 0.0, 0.0, 1.6946808987639325E9, 0.0, 2023-09-14 10:41:38.763
9.0, -16.026200774455162, 187500.0, 187500.0, 187500.0, 187500.0, 187500.0, 187500.0, 187500.0, 0.02, -0.014, 0.756, 192.0, 0.0, 0.0, 0.0, 0.0, 0.0, 0.0, 0.0, 0.0, 0.0, 1.6946808987639546E9, 0.0, 2023-09-14 10:41:38.763
10.0, -16.182662985642313, 187500.0, 187500.0, 187500.0, 187500.0, 187500.0, 187500.0, 187500.0, 0.02, -0.014, 0.756, 192.0, 0.0, 0.0, 0.0, 0.0, 0.0, 0.0, 0.0, 0.0, 0.0, 1.6946808987639768E9, 0.0, 2023-09-14 10:41:38.763
11.0, -21.100046765809868, 187500.0, 187500.0, 187500.0, 187500.0, 187500.0, 187500.0, 187500.0, 0.02, -0.014, 0.756, 192.0, 0.0, 0.0, 0.0, 0.0, 0.0, 0.0, 0.0, 0.0, 0.0, 1.6946808987639997E9, 0.0, 2023-09-14 10:41:38.763
12.0, -39.36142198579574, 187500.0, 187500.0, 187500.0, 187500.0, 187500.0, 187500.0, 187500.0, 0.02, -0.014, 0.756, 192.0, 0.0, 0.0, 0.0, 0.0, 0.0, 0.0, 0.0, 0.0, 0.0, 1.694680898764022E9, 0.0, 2023-09-14 10:41:38.764
13.0, -43.45179122111693, 187500.0, 187500.0, 187500.0, 187500.0, 187500.0, 187500.0, 187500.0, 0.02, -0.014, 0.756, 192.0, 0.0, 0.0, 0.0, 0.0, 0.0, 0.0, 0.0, 0.0, 0.0, 1.6946808987640443E9, 0.0, 2023-09-14 10:41:38.764
14.0, -43.49649471002754, 187500.0, 187500.0, 187500.0, 187500.0, 187500.0, 187500.0, 187500.0, 0.02, -0.014, 0.756, 192.0, 0.0, 0.0, 0.0, 0.0, 0.0, 0.0, 0.0, 0.0, 0.0, 1.6946808987640667E9, 0.0, 2023-09-14 10:41:38.764
15.0, -38.6014626743153, 187500.0, 187500.0, 187500.0, 187500.0, 187500.0, 187500.0, 187500.0, 0.02, -0.014, 0.756, 192.0, 0.0, 0.0, 0.0, 0.0, 0.0, 0.0, 0.0, 0.0, 0.0, 1.6946808987640889E9, 0.0, 2023-09-14 10:41:38.764
16.0, -20.38479094324004, 187500.0, 187500.0, 187500.0, 187500.0, 187500.0, 187500.0, 187500.0, 0.02, -0.014, 0.756, 192.0, 0.0, 0.0, 0.0, 0.0, 0.0, 0.0, 0.0, 0.0, 0.0, 1.6946808987641108E9, 0.0, 2023-09-14 10:41:38.764
17.0, -16.07090426336578, 187500.0, 187500.0, 187500.0, 187500.0, 187500.0, 187500.0, 187500.0, 0.028, -0.014, 0.878, 192.0, 0.0, 224.0, 255.0, 144.0, 27.0, 112.0, 0.0, 0.0, 0.0, 1.6946808987641327E9, 0.0, 2023-09-14 10:41:38.764
18.0, -16.1379594967317, 187500.0, 187500.0, 187500.0, 187500.0, 187500.0, 187500.0, 187500.0, 0.028, -0.014, 0.878, 192.0, 0.0, 0.0, 0.0, 0.0, 0.0, 0.0, 0.0, 0.0, 0.0, 1.6946808987641528E9, 0.0, 2023-09-14 10:41:38.764
19.0, -20.831825832346183, 187500.0, 187500.0, 187500.0, 187500.0, 187500.0, 187500.0, 187500.0, 0.028, -0.014, 0.878, 192.0, 0.0, 0.0, 0.0, 0.0, 0.0, 0.0, 0.0, 0.0, 0.0, 1.6946808987641742E9, 0.0, 2023-09-14 10:41:38.764
20.0, -39.36142198579574, 187500.0, 187500.0, 187500.0, 187500.0, 187500.0, 187500.0, 187500.0, 0.028, -0.014, 0.878, 192.0, 0.0, 0.0, 0.0, 0.0, 0.0, 0.0, 0.0, 0.0, 0.0, 1.694680898764196E9, 0.0, 2023-09-14 10:41:38.764
21.0, -43.407087732206314, 187500.0, 187500.0, 187500.0, 187500.0, 187500.0, 187500.0, 187500.0, 0.028, -0.014, 0.878, 192.0, 0.0, 0.0, 0.0, 0.0, 0.0, 0.0, 0.0, 0.0, 0.0, 1.6946808987642164E9, 0.0, 2023-09-14 10:41:38.764
22.0, -43.25062552101917, 187500.0, 187500.0, 187500.0, 187500.0, 187500.0, 187500.0, 187500.0, 0.028, -0.014, 0.878, 192.0, 0.0, 0.0, 0.0, 0.0, 0.0, 0.0, 0.0, 0.0, 0.0, 1.6946808987642455E9, 0.0, 2023-09-14 10:41:38.764
23.0, -38.646166163225914, 187500.0, 187500.0, 187500.0, 187500.0, 187500.0, 187500.0, 187500.0, 0.028, -0.014, 0.878, 192.0, 0.0, 0.0, 0.0, 0.0, 0.0, 0.0, 0.0, 0.0, 0.0, 1.6946808987642667E9, 0.0, 2023-09-14 10:41:38.764
24.0, -20.38479094324004, 187500.0, 187500.0, 187500.0, 187500.0, 187500.0, 187500.0, 187500.0, 0.028, -0.014, 0.878, 192.0, 0.0, 0.0, 0.0, 0.0, 0.0, 0.0, 0.0, 0.0, 0.0, 1.6946808987642868E9, 0.0, 2023-09-14 10:41:38.764
25.0, -16.294421707918847, 187500.0, 187500.0, 187500.0, 187500.0, 187500.0, 187500.0, 187500.0, 0.028, -0.014, 0.878, 192.0, 0.0, 0.0, 0.0, 0.0, 0.0, 0.0, 0.0, 0.0, 0.0, 1.6946808987643073E9, 0.0, 2023-09-14 10:41:38.764
26.0, -15.780331585446786, 187500.0, 187500.0, 187500.0, 187500.0, 187500.0, 187500.0, 187500.0, 0.032, -0.016, 0.9380000000000001, 192.0, 1.0, 0.0, 255.0, 128.0, 29.0, 80.0, 0.0, 0.0, 0.0, 1.6946808987643266E9, 0.0, 2023-09-14 10:41:38.764
27.0, -20.47419792106127, 187500.0, 187500.0, 187500.0, 187500.0, 187500.0, 187500.0, 187500.0, 0.032, -0.016, 0.9380000000000001, 192.0, 0.0, 0.0, 0.0, 0.0, 0.0, 0.0, 0.0, 0.0, 0.0, 1.6946808987643473E9, 0.0, 2023-09-14 10:41:38.764
28.0, -39.58493943034881, 187500.0, 187500.0, 187500.0, 187500.0, 187500.0, 187500.0, 187500.0, 0.032, -0.016, 0.9380000000000001, 192.0, 0.0, 0.0, 0.0, 0.0, 0.0, 0.0, 0.0, 0.0, 0.0, 1.694680898764368E9, 0.0, 2023-09-14 10:41:38.764
29.0, -43.56354994339347, 187500.0, 187500.0, 187500.0, 187500.0, 187500.0, 187500.0, 187500.0, 0.032, -0.016, 0.9380000000000001, 192.0, 0.0, 0.0, 0.0, 0.0, 0.0, 0.0, 0.0, 0.0, 0.0, 1.694680898764388E9, 0.0, 2023-09-14 10:41:38.764
30.0, -43.63060517675939, 187500.0, 187500.0, 187500.0, 187500.0, 187500.0, 187500.0, 187500.0, 0.032, -0.016, 0.9380000000000001, 192.0, 0.0, 0.0, 0.0, 0.0, 0.0, 0.0, 0.0, 0.0, 0.0, 1.6946808987644076E9, 0.0, 2023-09-14 10:41:38.764
31.0, -38.914387096689595, 187500.0, 187500.0, 187500.0, 187500.0, 187500.0, 187500.0, 187500.0, 0.032, -0.016, 0.9380000000000001, 192.0, 0.0, 0.0, 0.0, 0.0, 0.0, 0.0, 0.0, 0.0, 0.0, 1.694680898764428E9, 0.0, 2023-09-14 10:41:38.764
32.0, -20.38479094324004, 187500.0, 187500.0, 187500.0, 187500.0, 187500.0, 187500.0, 187500.0, 0.032, -0.016, 0.9380000000000001, 192.0, 0.0, 0.0, 0.0, 0.0, 0.0, 0.0, 0.0, 0.0, 0.0, 1.6946808987644508E9, 0.0, 2023-09-14 10:41:38.764
33.0, -16.1379594967317, 187500.0, 187500.0, 187500.0, 187500.0, 187500.0, 187500.0, 187500.0, 0.032, -0.016, 0.9380000000000001, 192.0, 0.0, 0.0, 0.0, 0.0, 0.0, 0.0, 0.0, 0.0, 0.0, 1.6946808987644715E9, 0.0, 2023-09-14 10:41:38.764
34.0, -16.294421707918847, 187500.0, 187500.0, 187500.0, 187500.0, 187500.0, 187500.0, 187500.0, 0.032, -0.016, 0.9380000000000001, 192.0, 0.0, 0.0, 0.0, 0.0, 0.0, 0.0, 0.0, 0.0, 0.0, 1.6946808987644928E9, 0.0, 2023-09-14 10:41:38.764
35.0, -20.92123281016741, 187500.0, 187500.0, 187500.0, 187500.0, 187500.0, 187500.0, 187500.0, 0.032, -0.016, 0.9380000000000001, 192.0, 0.0, 0.0, 0.0, 0.0, 0.0, 0.0, 0.0, 0.0, 0.0, 1.694680898764514E9, 0.0, 2023-09-14 10:41:38.764
36.0, -38.95909058560021, 187500.0, 187500.0, 187500.0, 187500.0, 187500.0, 187500.0, 187500.0, 0.028, -0.02, 0.972, 192.0, 0.0, 224.0, 255.0, 96.0, 30.0, 96.0, 0.0, 0.0, 0.0, 1.694680898764534E9, 0.0, 2023-09-14 10:41:38.764
37.0, -43.3623842432957, 187500.0, 187500.0, 187500.0, 187500.0, 187500.0, 187500.0, 187500.0, 0.028, -0.02, 0.972, 192.0, 0.0, 0.0, 0.0, 0.0, 0.0, 0.0, 0.0, 0.0, 0.0, 1.6946808987645545E9, 0.0, 2023-09-14 10:41:38.764
38.0, -43.42943947666162, 187500.0, 187500.0, 187500.0, 187500.0, 187500.0, 187500.0, 187500.0, 0.028, -0.02, 0.972, 192.0, 0.0, 0.0, 0.0, 0.0, 0.0, 0.0, 0.0, 0.0, 0.0, 1.6946808987645755E9, 0.0, 2023-09-14 10:41:38.764
39.0, -38.780276629957754, 187500.0, 187500.0, 187500.0, 187500.0, 187500.0, 187500.0, 187500.0, 0.028, -0.02, 0.972, 192.0, 0.0, 0.0, 0.0, 0.0, 0.0, 0.0, 0.0, 0.0, 0.0, 1.6946808987645972E9, 0.0, 2023-09-14 10:41:38.764
40.0, -20.340087454329428, 187500.0, 187500.0, 187500.0, 187500.0, 187500.0, 187500.0, 187500.0, 0.028, -0.02, 0.972, 192.0, 0.0, 0.0, 0.0, 0.0, 0.0, 0.0, 0.0, 0.0, 0.0, 1.6946808987646182E9, 0.0, 2023-09-14 10:41:38.764
41.0, -16.093256007821086, 187500.0, 187500.0, 187500.0, 187500.0, 187500.0, 187500.0, 187500.0, 0.028, -0.02, 0.972, 192.0, 0.0, 0.0, 0.0, 0.0, 0.0, 0.0, 0.0, 0.0, 0.0, 1.6946808987646403E9, 0.0, 2023-09-14 10:41:38.764
42.0, -16.115607752276393, 187500.0, 187500.0, 187500.0, 187500.0, 187500.0, 187500.0, 187500.0, 0.028, -0.02, 0.972, 192.0, 0.0, 0.0, 0.0, 0.0, 0.0, 0.0, 0.0, 0.0, 0.0, 1.6946808987646613E9, 0.0, 2023-09-14 10:41:38.764
43.0, -21.368267699273552, 187500.0, 187500.0, 187500.0, 187500.0, 187500.0, 187500.0, 187500.0, 0.028, -0.02, 0.972, 192.0, 0.0, 0.0, 0.0, 0.0, 0.0, 0.0, 0.0, 0.0, 0.0, 1.694680898764688E9, 0.0, 2023-09-14 10:41:38.764
44.0, -39.49553245252758, 187500.0, 187500.0, 187500.0, 187500.0, 187500.0, 187500.0, 187500.0, 0.028, -0.02, 0.972, 192.0, 0.0, 0.0, 0.0, 0.0, 0.0, 0.0, 0.0, 0.0, 0.0, 1.6946808987647097E9, 0.0, 2023-09-14 10:41:38.764
45.0, -43.787067387946536, 187500.0, 187500.0, 187500.0, 187500.0, 187500.0, 187500.0, 187500.0, 0.028, -0.02, 0.972, 192.0, 0.0, 0.0, 0.0, 0.0, 0.0, 0.0, 0.0, 0.0, 0.0, 1.6946808987647316E9, 0.0, 2023-09-14 10:41:38.764
46.0, -43.787067387946536, 187500.0, 187500.0, 187500.0, 187500.0, 187500.0, 187500.0, 187500.0, 0.028, -0.018000000000000002, 0.984, 192.0, 0.0, 224.0, 255.0, 112.0, 30.0, 192.0, 0.0, 0.0, 0.0, 1.6946808987647533E9, 0.0, 2023-09-14 10:41:38.764
47.0, -38.981442330055515, 187500.0, 187500.0, 187500.0, 187500.0, 187500.0, 187500.0, 187500.0, 0.028, -0.018000000000000002, 0.984, 192.0, 0.0, 0.0, 0.0, 0.0, 0.0, 0.0, 0.0, 0.0, 0.0, 1.6946808987647753E9, 0.0, 2023-09-14 10:41:38.764
48.0, -20.429494432150655, 187500.0, 187500.0, 187500.0, 187500.0, 187500.0, 187500.0, 187500.0, 0.028, -0.018000000000000002, 0.984, 192.0, 0.0, 0.0, 0.0, 0.0, 0.0, 0.0, 0.0, 0.0, 0.0, 1.694680898764797E9, 0.0, 2023-09-14 10:41:38.764
49.0, -16.316773452374157, 187500.0, 187500.0, 187500.0, 187500.0, 187500.0, 187500.0, 187500.0, 0.028, -0.018000000000000002, 0.984, 192.0, 0.0, 0.0, 0.0, 0.0, 0.0, 0.0, 0.0, 0.0, 0.0, 1.6946808987648196E9, 0.0, 2023-09-14 10:41:38.764
50.0, -16.473235663561304, 187500.0, 187500.0, 187500.0, 187500.0, 187500.0, 187500.0, 187500.0, 0.028, -0.018000000000000002, 0.984, 192.0, 0.0, 0.0, 0.0, 0.0, 0.0, 0.0, 0.0, 0.0, 0.0, 1.6946808987648413E9, 0.0, 2023-09-14 10:41:38.764
51.0, -20.943584554622717, 187500.0, 187500.0, 187500.0, 187500.0, 187500.0, 187500.0, 187500.0, 0.028, -0.018000000000000002, 0.984, 192.0, 0.0, 0.0, 0.0, 0.0, 0.0, 0.0, 0.0, 0.0, 0.0, 1.6946808987648623E9, 0.0, 2023-09-14 10:41:38.764
52.0, -39.42847721916166, 187500.0, 187500.0, 187500.0, 187500.0, 187500.0, 187500.0, 187500.0, 0.028, -0.018000000000000002, 0.984, 192.0, 0.0, 0.0, 0.0, 0.0, 0.0, 0.0, 0.0, 0.0, 0.0, 1.694680898764884E9, 0.0, 2023-09-14 10:41:38.764
53.0, -43.63060517675939, 187500.0, 187500.0, 187500.0, 187500.0, 187500.0, 187500.0, 187500.0, 0.028, -0.018000000000000002, 0.984, 192.0, 0.0, 0.0, 0.0, 0.0, 0.0, 0.0, 0.0, 0.0, 0.0, 1.694680898764906E9, 0.0, 2023-09-14 10:41:38.764
54.0, -43.87647436576776, 187500.0, 187500.0, 187500.0, 187500.0, 187500.0, 187500.0, 187500.0, 0.028, -0.018000000000000002, 0.984, 192.0, 0.0, 0.0, 0.0, 0.0, 0.0, 0.0, 0.0, 0.0, 0.0, 1.694680898764928E9, 0.0, 2023-09-14 10:41:38.764
55.0, -38.914387096689595, 187500.0, 187500.0, 187500.0, 187500.0, 187500.0, 187500.0, 187500.0, 0.028, -0.018000000000000002, 0.984, 192.0, 0.0, 0.0, 0.0, 0.0, 0.0, 0.0, 0.0, 0.0, 0.0, 1.6946808987649505E9, 0.0, 2023-09-14 10:41:38.764
56.0, -20.720067110069646, 187500.0, 187500.0, 187500.0, 187500.0, 187500.0, 187500.0, 187500.0, 0.028, -0.012, 0.994, 192.0, 0.0, 224.0, 255.0, 160.0, 31.0, 16.0, 0.0, 0.0, 0.0, 1.6946808987649724E9, 0.0, 2023-09-14 10:41:38.764
57.0, -16.048552518910473, 187500.0, 187500.0, 187500.0, 187500.0, 187500.0, 187500.0, 187500.0, 0.028, -0.012, 0.994, 192.0, 0.0, 0.0, 0.0, 0.0, 0.0, 0.0, 0.0, 0.0, 0.0, 1.6946808987649941E9, 0.0, 2023-09-14 10:41:38.764
58.0, -16.227366474552927, 187500.0, 187500.0, 187500.0, 187500.0, 187500.0, 187500.0, 187500.0, 0.028, -0.012, 0.994, 192.0, 0.0, 0.0, 0.0, 0.0, 0.0, 0.0, 0.0, 0.0, 0.0, 1.6946808987650163E9, 0.0, 2023-09-14 10:41:38.765
59.0, -21.45767467709478, 187500.0, 187500.0, 187500.0, 187500.0, 187500.0, 187500.0, 187500.0, 0.028, -0.012, 0.994, 192.0, 0.0, 0.0, 0.0, 0.0, 0.0, 0.0, 0.0, 0.0, 0.0, 1.6946808987650375E9, 0.0, 2023-09-14 10:41:38.765
60.0, -39.67434640817004, 187500.0, 187500.0, 187500.0, 187500.0, 187500.0, 187500.0, 187500.0, 0.028, -0.012, 0.994, 192.0, 0.0, 0.0, 0.0, 0.0, 0.0, 0.0, 0.0, 0.0, 0.0, 1.694680898765057E9, 0.0, 2023-09-14 10:41:38.765
61.0, -43.74236389903592, 187500.0, 187500.0, 187500.0, 187500.0, 187500.0, 187500.0, 187500.0, 0.028, -0.012, 0.994, 192.0, 0.0, 0.0, 0.0, 0.0, 0.0, 0.0, 0.0, 0.0, 0.0, 1.694680898765078E9, 0.0, 2023-09-14 10:41:38.765
62.0, -43.74236389903592, 187500.0, 187500.0, 187500.0, 187500.0, 187500.0, 187500.0, 187500.0, 0.028, -0.012, 0.994, 192.0, 0.0, 0.0, 0.0, 0.0, 0.0, 0.0, 0.0, 0.0, 0.0, 1.6946808987650988E9, 0.0, 2023-09-14 10:41:38.765
63.0, -38.82498011886837, 187500.0, 187500.0, 187500.0, 187500.0, 187500.0, 187500.0, 187500.0, 0.028, -0.012, 0.994, 192.0, 0.0, 0.0, 0.0, 0.0, 0.0, 0.0, 0.0, 0.0, 0.0, 1.6946808987651193E9, 0.0, 2023-09-14 10:41:38.765
64.0, -20.38479094324004, 187500.0, 187500.0, 187500.0, 187500.0, 187500.0, 187500.0, 187500.0, 0.028, -0.012, 0.994, 192.0, 0.0, 0.0, 0.0, 0.0, 0.0, 0.0, 0.0, 0.0, 0.0, 1.6946808987651432E9, 0.0, 2023-09-14 10:41:38.765
65.0, -16.115607752276393, 187500.0, 187500.0, 187500.0, 187500.0, 187500.0, 187500.0, 187500.0, 0.028, -0.012, 0.994, 192.0, 0.0, 0.0, 0.0, 0.0, 0.0, 0.0, 0.0, 0.0, 0.0, 1.694680898765164E9, 0.0, 2023-09-14 10:41:38.765
66.0, -16.1379594967317, 187500.0, 187500.0, 187500.0, 187500.0, 187500.0, 187500.0, 187500.0, 0.032, -0.012, 1.0, 192.0, 1.0, 0.0, 255.0, 160.0, 31.0, 64.0, 0.0, 0.0, 0.0, 1.694680898765185E9, 0.0, 2023-09-14 10:41:38.765
67.0, -21.032991532443948, 187500.0, 187500.0, 187500.0, 187500.0, 187500.0, 187500.0, 187500.0, 0.032, -0.012, 1.0, 192.0, 0.0, 0.0, 0.0, 0.0, 0.0, 0.0, 0.0, 0.0, 0.0, 1.6946808987652063E9, 0.0, 2023-09-14 10:41:38.765
68.0, -39.49553245252758, 187500.0, 187500.0, 187500.0, 187500.0, 187500.0, 187500.0, 187500.0, 0.032, -0.012, 1.0, 192.0, 0.0, 0.0, 0.0, 0.0, 0.0, 0.0, 0.0, 0.0, 0.0, 1.6946808987652278E9, 0.0, 2023-09-14 10:41:38.765
69.0, -43.407087732206314, 187500.0, 187500.0, 187500.0, 187500.0, 187500.0, 187500.0, 187500.0, 0.032, -0.012, 1.0, 192.0, 0.0, 0.0, 0.0, 0.0, 0.0, 0.0, 0.0, 0.0, 0.0, 1.6946808987652495E9, 0.0, 2023-09-14 10:41:38.765
70.0, -43.16121854319794, 187500.0, 187500.0, 187500.0, 187500.0, 187500.0, 187500.0, 187500.0, 0.032, -0.012, 1.0, 192.0, 0.0, 0.0, 0.0, 0.0, 0.0, 0.0, 0.0, 0.0, 0.0, 1.6946808987652712E9, 0.0, 2023-09-14 10:41:38.765
71.0, -38.62381441877061, 187500.0, 187500.0, 187500.0, 187500.0, 187500.0, 187500.0, 187500.0, 0.032, -0.012, 1.0, 192.0, 0.0, 0.0, 0.0, 0.0, 0.0, 0.0, 0.0, 0.0, 0.0, 1.6946808987652936E9, 0.0, 2023-09-14 10:41:38.765
72.0, -20.608308387793112, 187500.0, 187500.0, 187500.0, 187500.0, 187500.0, 187500.0, 187500.0, 0.032, -0.012, 1.0, 192.0, 0.0, 0.0, 0.0, 0.0, 0.0, 0.0, 0.0, 0.0, 0.0, 1.6946808987653158E9, 0.0, 2023-09-14 10:41:38.765
73.0, -16.339125196829464, 187500.0, 187500.0, 187500.0, 187500.0, 187500.0, 187500.0, 187500.0, 0.032, -0.012, 1.0, 192.0, 0.0, 0.0, 0.0, 0.0, 0.0, 0.0, 0.0, 0.0, 0.0, 1.6946808987653377E9, 0.0, 2023-09-14 10:41:38.765
74.0, -16.1379594967317, 187500.0, 187500.0, 187500.0, 187500.0, 187500.0, 187500.0, 187500.0, 0.032, -0.012, 1.0, 192.0, 0.0, 0.0, 0.0, 0.0, 0.0, 0.0, 0.0, 0.0, 0.0, 1.6946808987653582E9, 0.0, 2023-09-14 10:41:38.765
75.0, -21.055343276899254, 187500.0, 187500.0, 187500.0, 187500.0, 187500.0, 187500.0, 187500.0, 0.032, -0.012, 1.0, 192.0, 0.0, 0.0, 0.0, 0.0, 0.0, 0.0, 0.0, 0.0, 0.0, 1.69468089876538E9, 0.0, 2023-09-14 10:41:38.765
76.0, -39.20495977460859, 187500.0, 187500.0, 187500.0, 187500.0, 187500.0, 187500.0, 187500.0, 0.032, -0.014, 1.004, 192.0, 1.0, 0.0, 255.0, 144.0, 31.0, 96.0, 0.0, 0.0, 0.0, 1.6946808987654E9, 0.0, 2023-09-14 10:41:38.765
77.0, -43.27297726547447, 187500.0, 187500.0, 187500.0, 187500.0, 187500.0, 187500.0, 187500.0, 0.032, -0.014, 1.004, 192.0, 0.0, 0.0, 0.0, 0.0, 0.0, 0.0, 0.0, 0.0, 0.0, 1.6946808987654197E9, 0.0, 2023-09-14 10:41:38.765
78.0, -43.56354994339347, 187500.0, 187500.0, 187500.0, 187500.0, 187500.0, 187500.0, 187500.0, 0.032, -0.014, 1.004, 192.0, 0.0, 0.0, 0.0, 0.0, 0.0, 0.0, 0.0, 0.0, 0.0, 1.6946808987654407E9, 0.0, 2023-09-14 10:41:38.765
79.0, -38.69086965213653, 187500.0, 187500.0, 187500.0, 187500.0, 187500.0, 187500.0, 187500.0, 0.032, -0.014, 1.004, 192.0, 0.0, 0.0, 0.0, 0.0, 0.0, 0.0, 0.0, 0.0, 0.0, 1.6946808987654605E9, 0.0, 2023-09-14 10:41:38.765
80.0, -20.429494432150655, 187500.0, 187500.0, 187500.0, 187500.0, 187500.0, 187500.0, 187500.0, 0.032, -0.014, 1.004, 192.0, 0.0, 0.0, 0.0, 0.0, 0.0, 0.0, 0.0, 0.0, 0.0, 1.694680898765479E9, 0.0, 2023-09-14 10:41:38.765
81.0, -16.1379594967317, 187500.0, 187500.0, 187500.0, 187500.0, 187500.0, 187500.0, 187500.0, 0.032, -0.014, 1.004, 192.0, 0.0, 0.0, 0.0, 0.0, 0.0, 0.0, 0.0, 0.0, 0.0, 1.694680898765498E9, 0.0, 2023-09-14 10:41:38.765
82.0, -16.115607752276393, 187500.0, 187500.0, 187500.0, 187500.0, 187500.0, 187500.0, 187500.0, 0.032, -0.014, 1.004, 192.0, 0.0, 0.0, 0.0, 0.0, 0.0, 0.0, 0.0, 0.0, 0.0, 1.6946808987655187E9, 0.0, 2023-09-14 10:41:38.765
83.0, -20.943584554622717, 187500.0, 187500.0, 187500.0, 187500.0, 187500.0, 187500.0, 187500.0, 0.032, -0.014, 1.004, 192.0, 0.0, 0.0, 0.0, 0.0, 0.0, 0.0, 0.0, 0.0, 0.0, 1.6946808987655385E9, 0.0, 2023-09-14 10:41:38.765
84.0, -39.40612547470635, 187500.0, 187500.0, 187500.0, 187500.0, 187500.0, 187500.0, 187500.0, 0.032, -0.014, 1.004, 192.0, 0.0, 0.0, 0.0, 0.0, 0.0, 0.0, 0.0, 0.0, 0.0, 1.6946808987655592E9, 0.0, 2023-09-14 10:41:38.765
85.0, -43.60825343230408, 187500.0, 187500.0, 187500.0, 187500.0, 187500.0, 187500.0, 187500.0, 0.032, -0.014, 1.004, 192.0, 0.0, 0.0, 0.0, 0.0, 0.0, 0.0, 0.0, 0.0, 0.0, 1.6946808987655797E9, 0.0, 2023-09-14 10:41:38.765
86.0, -43.54119819893816, 187500.0, 187500.0, 187500.0, 187500.0, 187500.0, 187500.0, 187500.0, 0.026000000000000002, -0.022, 1.022, 192.0, 0.0, 208.0, 255.0, 80.0, 31.0, 240.0, 0.0, 0.0, 0.0, 1.694680898765606E9, 0.0, 2023-09-14 10:41:38.765
87.0, -38.57911092985999, 187500.0, 187500.0, 187500.0, 187500.0, 187500.0, 187500.0, 187500.0, 0.026000000000000002, -0.022, 1.022, 192.0, 0.0, 0.0, 0.0, 0.0, 0.0, 0.0, 0.0, 0.0, 0.0, 1.6946808987656262E9, 0.0, 2023-09-14 10:41:38.765
88.0, -20.16127349868697, 187500.0, 187500.0, 187500.0, 187500.0, 187500.0, 187500.0, 187500.0, 0.026000000000000002, -0.022, 1.022, 192.0, 0.0, 0.0, 0.0, 0.0, 0.0, 0.0, 0.0, 0.0, 0.0, 1.6946808987656467E9, 0.0, 2023-09-14 10:41:38.765
89.0, -16.160311241187006, 187500.0, 187500.0, 187500.0, 187500.0, 187500.0, 187500.0, 187500.0, 0.026000000000000002, -0.022, 1.022, 192.0, 0.0, 0.0, 0.0, 0.0, 0.0, 0.0, 0.0, 0.0, 0.0, 1.6946808987656732E9, 0.0, 2023-09-14 10:41:38.765
90.0, -16.227366474552927, 187500.0, 187500.0, 187500.0, 187500.0, 187500.0, 187500.0, 187500.0, 0.026000000000000002, -0.022, 1.022, 192.0, 0.0, 0.0, 0.0, 0.0, 0.0, 0.0, 0.0, 0.0, 0.0, 1.6946808987657096E9, 0.0, 2023-09-14 10:41:38.765
91.0, -21.2118054880864, 187500.0, 187500.0, 187500.0, 187500.0, 187500.0, 187500.0, 187500.0, 0.026000000000000002, -0.022, 1.022, 192.0, 0.0, 0.0, 0.0, 0.0, 0.0, 0.0, 0.0, 0.0, 0.0, 1.6946808987657475E9, 0.0, 2023-09-14 10:41:38.765
92.0, -39.60729117480412, 187500.0, 187500.0, 187500.0, 187500.0, 187500.0, 187500.0, 187500.0, 0.026000000000000002, -0.022, 1.022, 192.0, 0.0, 0.0, 0.0, 0.0, 0.0, 0.0, 0.0, 0.0, 0.0, 1.694680898765782E9, 0.0, 2023-09-14 10:41:38.765
93.0, -43.652956921214695, 187500.0, 187500.0, 187500.0, 187500.0, 187500.0, 187500.0, 187500.0, 0.026000000000000002, -0.022, 1.022, 192.0, 0.0, 0.0, 0.0, 0.0, 0.0, 0.0, 0.0, 0.0, 0.0, 1.6946808987658155E9, 0.0, 2023-09-14 10:41:38.765
94.0, -43.63060517675939, 187500.0, 187500.0, 187500.0, 187500.0, 187500.0, 187500.0, 187500.0, 0.026000000000000002, -0.022, 1.022, 192.0, 0.0, 0.0, 0.0, 0.0, 0.0, 0.0, 0.0, 0.0, 0.0, 1.6946808987658377E9, 0.0, 2023-09-14 10:41:38.765
95.0, -38.981442330055515, 187500.0, 187500.0, 187500.0, 187500.0, 187500.0, 187500.0, 187500.0, 0.026000000000000002, -0.022, 1.022, 192.0, 0.0, 0.0, 0.0, 0.0, 0.0, 0.0, 0.0, 0.0, 0.0, 1.6946808987658596E9, 0.0, 2023-09-14 10:41:38.765
96.0, -20.138921754231664, 187500.0, 187500.0, 187500.0, 187500.0, 187500.0, 187500.0, 187500.0, 0.024, -0.022, 1.034, 192.0, 0.0, 192.0, 255.0, 80.0, 32.0, 80.0, 0.0, 0.0, 0.0, 1.6946808987658818E9, 0.0, 2023-09-14 10:41:38.765
97.0, -15.847386818812707, 187500.0, 187500.0, 187500.0, 187500.0, 187500.0, 187500.0, 187500.0, 0.024, -0.022, 1.034, 192.0, 0.0, 0.0, 0.0, 0.0, 0.0, 0.0, 0.0, 0.0, 0.0, 1.6946808987659056E9, 0.0, 2023-09-14 10:41:38.765
98.0, -16.07090426336578, 187500.0, 187500.0, 187500.0, 187500.0, 187500.0, 187500.0, 187500.0, 0.024, -0.022, 1.034, 192.0, 0.0, 0.0, 0.0, 0.0, 0.0, 0.0, 0.0, 0.0, 0.0, 1.69468089876593E9, 0.0, 2023-09-14 10:41:38.765
99.0, -20.898881065712104, 187500.0, 187500.0, 187500.0, 187500.0, 187500.0, 187500.0, 187500.0, 0.024, -0.022, 1.034, 192.0, 0.0, 0.0, 0.0, 0.0, 0.0, 0.0, 0.0, 0.0, 0.0, 1.6946808987659562E9, 0.0, 2023-09-14 10:41:38.765
100.0, -39.38377373025104, 187500.0, 187500.0, 187500.0, 187500.0, 187500.0, 187500.0, 187500.0, 0.024, -0.022, 1.034, 192.0, 0.0, 0.0, 0.0, 0.0, 0.0, 0.0, 0.0, 0.0, 0.0, 1.69468089876598E9, 0.0, 2023-09-14 10:41:38.765
101.0, -43.49649471002754, 187500.0, 187500.0, 187500.0, 187500.0, 187500.0, 187500.0, 187500.0, 0.024, -0.022, 1.034, 192.0, 0.0, 0.0, 0.0, 0.0, 0.0, 0.0, 0.0, 0.0, 0.0, 1.6946808987660048E9, 0.0, 2023-09-14 10:41:38.766
102.0, -43.25062552101917, 187500.0, 187500.0, 187500.0, 187500.0, 187500.0, 187500.0, 187500.0, 0.024, -0.022, 1.034, 192.0, 0.0, 0.0, 0.0, 0.0, 0.0, 0.0, 0.0, 0.0, 0.0, 1.6946808987660298E9, 0.0, 2023-09-14 10:41:38.766
103.0, -38.713221396591834, 187500.0, 187500.0, 187500.0, 187500.0, 187500.0, 187500.0, 187500.0, 0.024, -0.022, 1.034, 192.0, 0.0, 0.0, 0.0, 0.0, 0.0, 0.0, 0.0, 0.0, 0.0, 1.694680898766055E9, 0.0, 2023-09-14 10:41:38.766
104.0, -20.585956643337806, 187500.0, 187500.0, 187500.0, 187500.0, 187500.0, 187500.0, 187500.0, 0.024, -0.022, 1.034, 192.0, 0.0, 0.0, 0.0, 0.0, 0.0, 0.0, 0.0, 0.0, 0.0, 1.6946808987660804E9, 0.0, 2023-09-14 10:41:38.766
105.0, -16.003849029999856, 187500.0, 187500.0, 187500.0, 187500.0, 187500.0, 187500.0, 187500.0, 0.024, -0.022, 1.034, 192.0, 0.0, 0.0, 0.0, 0.0, 0.0, 0.0, 0.0, 0.0, 0.0, 1.694680898766101E9, 0.0, 2023-09-14 10:41:38.766
106.0, -16.1379594967317, 187500.0, 187500.0, 187500.0, 187500.0, 187500.0, 187500.0, 187500.0, 0.022, -0.02, 1.012, 192.0, 0.0, 176.0, 255.0, 96.0, 31.0, 160.0, 0.0, 0.0, 0.0, 1.694680898766122E9, 0.0, 2023-09-14 10:41:38.766
107.0, -20.98828804353333, 187500.0, 187500.0, 187500.0, 187500.0, 187500.0, 187500.0, 187500.0, 0.022, -0.02, 1.012, 192.0, 0.0, 0.0, 0.0, 0.0, 0.0, 0.0, 0.0, 0.0, 0.0, 1.6946808987661588E9, 0.0, 2023-09-14 10:41:38.766
108.0, -39.31671849688512, 187500.0, 187500.0, 187500.0, 187500.0, 187500.0, 187500.0, 187500.0, 0.022, -0.02, 1.012, 192.0, 0.0, 0.0, 0.0, 0.0, 0.0, 0.0, 0.0, 0.0, 0.0, 1.6946808987661872E9, 0.0, 2023-09-14 10:41:38.766
109.0, -43.340032498840394, 187500.0, 187500.0, 187500.0, 187500.0, 187500.0, 187500.0, 187500.0, 0.022, -0.02, 1.012, 192.0, 0.0, 0.0, 0.0, 0.0, 0.0, 0.0, 0.0, 0.0, 0.0, 1.6946808987662096E9, 0.0, 2023-09-14 10:41:38.766
110.0, -43.42943947666162, 187500.0, 187500.0, 187500.0, 187500.0, 187500.0, 187500.0, 187500.0, 0.022, -0.02, 1.012, 192.0, 0.0, 0.0, 0.0, 0.0, 0.0, 0.0, 0.0, 0.0, 0.0, 1.694680898766233E9, 0.0, 2023-09-14 10:41:38.766
111.0, -38.48970395203876, 187500.0, 187500.0, 187500.0, 187500.0, 187500.0, 187500.0, 187500.0, 0.022, -0.02, 1.012, 192.0, 0.0, 0.0, 0.0, 0.0, 0.0, 0.0, 0.0, 0.0, 0.0, 1.6946808987662568E9, 0.0, 2023-09-14 10:41:38.766
112.0, -20.429494432150655, 187500.0, 187500.0, 187500.0, 187500.0, 187500.0, 187500.0, 187500.0, 0.022, -0.02, 1.012, 192.0, 0.0, 0.0, 0.0, 0.0, 0.0, 0.0, 0.0, 0.0, 0.0, 1.694680898766281E9, 0.0, 2023-09-14 10:41:38.766
113.0, -16.093256007821086, 187500.0, 187500.0, 187500.0, 187500.0, 187500.0, 187500.0, 187500.0, 0.022, -0.02, 1.012, 192.0, 0.0, 0.0, 0.0, 0.0, 0.0, 0.0, 0.0, 0.0, 0.0, 1.694680898766304E9, 0.0, 2023-09-14 10:41:38.766
114.0, -15.959145541089242, 187500.0, 187500.0, 187500.0, 187500.0, 187500.0, 187500.0, 187500.0, 0.022, -0.02, 1.012, 192.0, 0.0, 0.0, 0.0, 0.0, 0.0, 0.0, 0.0, 0.0, 0.0, 1.6946808987663271E9, 0.0, 2023-09-14 10:41:38.766
115.0, -20.943584554622717, 187500.0, 187500.0, 187500.0, 187500.0, 187500.0, 187500.0, 187500.0, 0.022, -0.02, 1.012, 192.0, 0.0, 0.0, 0.0, 0.0, 0.0, 0.0, 0.0, 0.0, 0.0, 1.6946808987663512E9, 0.0, 2023-09-14 10:41:38.766
116.0, -39.31671849688512, 187500.0, 187500.0, 187500.0, 187500.0, 187500.0, 187500.0, 187500.0, 0.032, -0.022, 1.022, 192.0, 1.0, 0.0, 255.0, 80.0, 31.0, 240.0, 0.0, 0.0, 0.0, 1.6946808987663748E9, 0.0, 2023-09-14 10:41:38.766
117.0, -43.474142965572234, 187500.0, 187500.0, 187500.0, 187500.0, 187500.0, 187500.0, 187500.0, 0.032, -0.022, 1.022, 192.0, 0.0, 0.0, 0.0, 0.0, 0.0, 0.0, 0.0, 0.0, 0.0, 1.6946808987663968E9, 0.0, 2023-09-14 10:41:38.766
118.0, -43.60825343230408, 187500.0, 187500.0, 187500.0, 187500.0, 187500.0, 187500.0, 187500.0, 0.032, -0.022, 1.022, 192.0, 0.0, 0.0, 0.0, 0.0, 0.0, 0.0, 0.0, 0.0, 0.0, 1.694680898766416E9, 0.0, 2023-09-14 10:41:38.766
119.0, -39.13790454124267, 187500.0, 187500.0, 187500.0, 187500.0, 187500.0, 187500.0, 187500.0, 0.032, -0.022, 1.022, 192.0, 0.0, 0.0, 0.0, 0.0, 0.0, 0.0, 0.0, 0.0, 0.0, 1.6946808987664392E9, 0.0, 2023-09-14 10:41:38.766
120.0, -20.47419792106127, 187500.0, 187500.0, 187500.0, 187500.0, 187500.0, 187500.0, 187500.0, 0.032, -0.022, 1.022, 192.0, 0.0, 0.0, 0.0, 0.0, 0.0, 0.0, 0.0, 0.0, 0.0, 1.694680899244549E9, 0.0, 2023-09-14 10:41:39.244
121.0, -15.892090307723322, 187500.0, 187500.0, 187500.0, 187500.0, 187500.0, 187500.0, 187500.0, 0.032, -0.022, 1.022, 192.0, 0.0, 0.0, 0.0, 0.0, 0.0, 0.0, 0.0, 0.0, 0.0, 1.6946808992446735E9, 0.0, 2023-09-14 10:41:39.244
122.0, -15.847386818812707, 187500.0, 187500.0, 187500.0, 187500.0, 187500.0, 187500.0, 187500.0, 0.032, -0.022, 1.022, 192.0, 0.0, 0.0, 0.0, 0.0, 0.0, 0.0, 0.0, 0.0, 0.0, 1.6946808992447524E9, 0.0, 2023-09-14 10:41:39.244
123.0, -20.98828804353333, 187500.0, 187500.0, 187500.0, 187500.0, 187500.0, 187500.0, 187500.0, 0.032, -0.022, 1.022, 192.0, 0.0, 0.0, 0.0, 0.0, 0.0, 0.0, 0.0, 0.0, 0.0, 1.6946808992447848E9, 0.0, 2023-09-14 10:41:39.244
124.0, -39.49553245252758, 187500.0, 187500.0, 187500.0, 187500.0, 187500.0, 187500.0, 187500.0, 0.032, -0.022, 1.022, 192.0, 0.0, 0.0, 0.0, 0.0, 0.0, 0.0, 0.0, 0.0, 0.0, 1.694680899244811E9, 0.0, 2023-09-14 10:41:39.244
125.0, -43.51884645448285, 187500.0, 187500.0, 187500.0, 187500.0, 187500.0, 187500.0, 187500.0, 0.032, -0.022, 1.022, 192.0, 0.0, 0.0, 0.0, 0.0, 0.0, 0.0, 0.0, 0.0, 0.0, 1.6946808992448356E9, 0.0, 2023-09-14 10:41:39.244
126.0, -43.89882611022307, 187500.0, 187500.0, 187500.0, 187500.0, 187500.0, 187500.0, 187500.0, 0.026000000000000002, -0.016, 0.968, 192.0, 0.0, 208.0, 255.0, 128.0, 30.0, 64.0, 0.0, 0.0, 0.0, 1.6946808992448597E9, 0.0, 2023-09-14 10:41:39.244
127.0, -39.048497563421435, 187500.0, 187500.0, 187500.0, 187500.0, 187500.0, 187500.0, 187500.0, 0.026000000000000002, -0.016, 0.968, 192.0, 0.0, 0.0, 0.0, 0.0, 0.0, 0.0, 0.0, 0.0, 0.0, 1.6946808992448838E9, 0.0, 2023-09-14 10:41:39.244
128.0, -20.31773570987412, 187500.0, 187500.0, 187500.0, 187500.0, 187500.0, 187500.0, 187500.0, 0.026000000000000002, -0.016, 0.968, 192.0, 0.0, 0.0, 0.0, 0.0, 0.0, 0.0, 0.0, 0.0, 0.0, 1.694680899244907E9, 0.0, 2023-09-14 10:41:39.244
129.0, -16.07090426336578, 187500.0, 187500.0, 187500.0, 187500.0, 187500.0, 187500.0, 187500.0, 0.026000000000000002, -0.016, 0.968, 192.0, 0.0, 0.0, 0.0, 0.0, 0.0, 0.0, 0.0, 0.0, 0.0, 1.6946808992449307E9, 0.0, 2023-09-14 10:41:39.244
130.0, -16.339125196829464, 187500.0, 187500.0, 187500.0, 187500.0, 187500.0, 187500.0, 187500.0, 0.026000000000000002, -0.016, 0.968, 192.0, 0.0, 0.0, 0.0, 0.0, 0.0, 0.0, 0.0, 0.0, 0.0, 1.694680899244955E9, 0.0, 2023-09-14 10:41:39.244
131.0, -20.653011876703726, 187500.0, 187500.0, 187500.0, 187500.0, 187500.0, 187500.0, 187500.0, 0.026000000000000002, -0.016, 0.968, 192.0, 0.0, 0.0, 0.0, 0.0, 0.0, 0.0, 0.0, 0.0, 0.0, 1.6946808992449782E9, 0.0, 2023-09-14 10:41:39.244
132.0, -39.18260803015328, 187500.0, 187500.0, 187500.0, 187500.0, 187500.0, 187500.0, 187500.0, 0.026000000000000002, -0.016, 0.968, 192.0, 0.0, 0.0, 0.0, 0.0, 0.0, 0.0, 0.0, 0.0, 0.0, 1.6946808992450013E9, 0.0, 2023-09-14 10:41:39.245
133.0, -43.56354994339347, 187500.0, 187500.0, 187500.0, 187500.0, 187500.0, 187500.0, 187500.0, 0.026000000000000002, -0.016, 0.968, 192.0, 0.0, 0.0, 0.0, 0.0, 0.0, 0.0, 0.0, 0.0, 0.0, 1.6946808992450244E9, 0.0, 2023-09-14 10:41:39.245
134.0, -43.45179122111693, 187500.0, 187500.0, 187500.0, 187500.0, 187500.0, 187500.0, 187500.0, 0.026000000000000002, -0.016, 0.968, 192.0, 0.0, 0.0, 0.0, 0.0, 0.0, 0.0, 0.0, 0.0, 0.0, 1.6946808992450476E9, 0.0, 2023-09-14 10:41:39.245
135.0, -38.914387096689595, 187500.0, 187500.0, 187500.0, 187500.0, 187500.0, 187500.0, 187500.0, 0.026000000000000002, -0.016, 0.968, 192.0, 0.0, 0.0, 0.0, 0.0, 0.0, 0.0, 0.0, 0.0, 0.0, 1.6946808992450747E9, 0.0, 2023-09-14 10:41:39.245
136.0, -20.295383965418814, 187500.0, 187500.0, 187500.0, 187500.0, 187500.0, 187500.0, 187500.0, 0.024, -0.018000000000000002, 0.928, 192.0, 0.0, 192.0, 255.0, 112.0, 29.0, 0.0, 0.0, 0.0, 0.0, 1.694680899245099E9, 0.0, 2023-09-14 10:41:39.245
137.0, -16.07090426336578, 187500.0, 187500.0, 187500.0, 187500.0, 187500.0, 187500.0, 187500.0, 0.024, -0.018000000000000002, 0.928, 192.0, 0.0, 0.0, 0.0, 0.0, 0.0, 0.0, 0.0, 0.0, 0.0, 1.6946808992451217E9, 0.0, 2023-09-14 10:41:39.245
138.0, -16.249718219008233, 187500.0, 187500.0, 187500.0, 187500.0, 187500.0, 187500.0, 187500.0, 0.024, -0.018000000000000002, 0.928, 192.0, 0.0, 0.0, 0.0, 0.0, 0.0, 0.0, 0.0, 0.0, 0.0, 1.6946808992451456E9, 0.0, 2023-09-14 10:41:39.245
139.0, -21.14475025472048, 187500.0, 187500.0, 187500.0, 187500.0, 187500.0, 187500.0, 187500.0, 0.024, -0.018000000000000002, 0.928, 192.0, 0.0, 0.0, 0.0, 0.0, 0.0, 0.0, 0.0, 0.0, 0.0, 1.6946808992451692E9, 0.0, 2023-09-14 10:41:39.245
140.0, -39.31671849688512, 187500.0, 187500.0, 187500.0, 187500.0, 187500.0, 187500.0, 187500.0, 0.024, -0.018000000000000002, 0.928, 192.0, 0.0, 0.0, 0.0, 0.0, 0.0, 0.0, 0.0, 0.0, 0.0, 1.6946808992451923E9, 0.0, 2023-09-14 10:41:39.245
141.0, -43.3623842432957, 187500.0, 187500.0, 187500.0, 187500.0, 187500.0, 187500.0, 187500.0, 0.024, -0.018000000000000002, 0.928, 192.0, 0.0, 0.0, 0.0, 0.0, 0.0, 0.0, 0.0, 0.0, 0.0, 1.6946808992452152E9, 0.0, 2023-09-14 10:41:39.245
142.0, -43.31768075438509, 187500.0, 187500.0, 187500.0, 187500.0, 187500.0, 187500.0, 187500.0, 0.024, -0.018000000000000002, 0.928, 192.0, 0.0, 0.0, 0.0, 0.0, 0.0, 0.0, 0.0, 0.0, 0.0, 1.6946808992452388E9, 0.0, 2023-09-14 10:41:39.245
143.0, -38.75792488550245, 187500.0, 187500.0, 187500.0, 187500.0, 187500.0, 187500.0, 187500.0, 0.024, -0.018000000000000002, 0.928, 192.0, 0.0, 0.0, 0.0, 0.0, 0.0, 0.0, 0.0, 0.0, 0.0, 1.694680899245262E9, 0.0, 2023-09-14 10:41:39.245
144.0, -20.205976987597584, 187500.0, 187500.0, 187500.0, 187500.0, 187500.0, 187500.0, 187500.0, 0.024, -0.018000000000000002, 0.928, 192.0, 0.0, 0.0, 0.0, 0.0, 0.0, 0.0, 0.0, 0.0, 0.0, 1.694680899245285E9, 0.0, 2023-09-14 10:41:39.245
145.0, -15.959145541089242, 187500.0, 187500.0, 187500.0, 187500.0, 187500.0, 187500.0, 187500.0, 0.024, -0.014, 0.998, 192.0, 0.0, 192.0, 255.0, 144.0, 31.0, 48.0, 0.0, 0.0, 0.0, 1.694680899245308E9, 0.0, 2023-09-14 10:41:39.245
146.0, -15.690924607625558, 187500.0, 187500.0, 187500.0, 187500.0, 187500.0, 187500.0, 187500.0, 0.024, -0.014, 0.998, 192.0, 0.0, 0.0, 0.0, 0.0, 0.0, 0.0, 0.0, 0.0, 0.0, 1.694680899245331E9, 0.0, 2023-09-14 10:41:39.245
147.0, -20.45184617660596, 187500.0, 187500.0, 187500.0, 187500.0, 187500.0, 187500.0, 187500.0, 0.024, -0.014, 0.998, 192.0, 0.0, 0.0, 0.0, 0.0, 0.0, 0.0, 0.0, 0.0, 0.0, 1.694680899245354E9, 0.0, 2023-09-14 10:41:39.245
148.0, -39.02614581896613, 187500.0, 187500.0, 187500.0, 187500.0, 187500.0, 187500.0, 187500.0, 0.024, -0.014, 0.998, 192.0, 0.0, 0.0, 0.0, 0.0, 0.0, 0.0, 0.0, 0.0, 0.0, 1.6946808992453768E9, 0.0, 2023-09-14 10:41:39.245
149.0, -43.49649471002754, 187500.0, 187500.0, 187500.0, 187500.0, 187500.0, 187500.0, 187500.0, 0.024, -0.014, 0.998, 192.0, 0.0, 0.0, 0.0, 0.0, 0.0, 0.0, 0.0, 0.0, 0.0, 1.6946808992453997E9, 0.0, 2023-09-14 10:41:39.245
150.0, -43.49649471002754, 187500.0, 187500.0, 187500.0, 187500.0, 187500.0, 187500.0, 187500.0, 0.024, -0.014, 0.998, 192.0, 0.0, 0.0, 0.0, 0.0, 0.0, 0.0, 0.0, 0.0, 0.0, 1.6946808992454224E9, 0.0, 2023-09-14 10:41:39.245
151.0, -38.75792488550245, 187500.0, 187500.0, 187500.0, 187500.0, 187500.0, 187500.0, 187500.0, 0.024, -0.014, 0.998, 192.0, 0.0, 0.0, 0.0, 0.0, 0.0, 0.0, 0.0, 0.0, 0.0, 1.6946808992454455E9, 0.0, 2023-09-14 10:41:39.245
152.0, -20.608308387793112, 187500.0, 187500.0, 187500.0, 187500.0, 187500.0, 187500.0, 187500.0, 0.024, -0.014, 0.998, 192.0, 0.0, 0.0, 0.0, 0.0, 0.0, 0.0, 0.0, 0.0, 0.0, 1.6946808992454684E9, 0.0, 2023-09-14 10:41:39.245
153.0, -16.20501473009762, 187500.0, 187500.0, 187500.0, 187500.0, 187500.0, 187500.0, 187500.0, 0.024, -0.014, 0.998, 192.0, 0.0, 0.0, 0.0, 0.0, 0.0, 0.0, 0.0, 0.0, 0.0, 1.6946808992454913E9, 0.0, 2023-09-14 10:41:39.245
154.0, -16.003849029999856, 187500.0, 187500.0, 187500.0, 187500.0, 187500.0, 187500.0, 187500.0, 0.024, -0.014, 0.998, 192.0, 0.0, 0.0, 0.0, 0.0, 0.0, 0.0, 0.0, 0.0, 0.0, 1.694680899245514E9, 0.0, 2023-09-14 10:41:39.245
155.0, -20.92123281016741, 187500.0, 187500.0, 187500.0, 187500.0, 187500.0, 187500.0, 187500.0, 0.032, -0.024, 1.022, 192.0, 1.0, 0.0, 255.0, 64.0, 31.0, 240.0, 0.0, 0.0, 0.0, 1.6946808992455373E9, 0.0, 2023-09-14 10:41:39.245
156.0, -39.13790454124267, 187500.0, 187500.0, 187500.0, 187500.0, 187500.0, 187500.0, 187500.0, 0.032, -0.024, 1.022, 192.0, 0.0, 0.0, 0.0, 0.0, 0.0, 0.0, 0.0, 0.0, 0.0, 1.69468089924556E9, 0.0, 2023-09-14 10:41:39.245
157.0, -43.56354994339347, 187500.0, 187500.0, 187500.0, 187500.0, 187500.0, 187500.0, 187500.0, 0.032, -0.024, 1.022, 192.0, 0.0, 0.0, 0.0, 0.0, 0.0, 0.0, 0.0, 0.0, 0.0, 1.694680899245582E9, 0.0, 2023-09-14 10:41:39.245
158.0, -43.83177087685715, 187500.0, 187500.0, 187500.0, 187500.0, 187500.0, 187500.0, 187500.0, 0.032, -0.024, 1.022, 192.0, 0.0, 0.0, 0.0, 0.0, 0.0, 0.0, 0.0, 0.0, 0.0, 1.694680899245605E9, 0.0, 2023-09-14 10:41:39.245
159.0, -38.82498011886837, 187500.0, 187500.0, 187500.0, 187500.0, 187500.0, 187500.0, 187500.0, 0.032, -0.024, 1.022, 192.0, 0.0, 0.0, 0.0, 0.0, 0.0, 0.0, 0.0, 0.0, 0.0, 1.6946808992456276E9, 0.0, 2023-09-14 10:41:39.245
160.0, -20.273032220963504, 187500.0, 187500.0, 187500.0, 187500.0, 187500.0, 187500.0, 187500.0, 0.032, -0.024, 1.022, 192.0, 0.0, 0.0, 0.0, 0.0, 0.0, 0.0, 0.0, 0.0, 0.0, 1.6946808992456505E9, 0.0, 2023-09-14 10:41:39.245
161.0, -16.115607752276393, 187500.0, 187500.0, 187500.0, 187500.0, 187500.0, 187500.0, 187500.0, 0.032, -0.024, 1.022, 192.0, 0.0, 0.0, 0.0, 0.0, 0.0, 0.0, 0.0, 0.0, 0.0, 1.6946808992456734E9, 0.0, 2023-09-14 10:41:39.245
162.0, -16.026200774455162, 187500.0, 187500.0, 187500.0, 187500.0, 187500.0, 187500.0, 187500.0, 0.032, -0.024, 1.022, 192.0, 0.0, 0.0, 0.0, 0.0, 0.0, 0.0, 0.0, 0.0, 0.0, 1.6946808992456968E9, 0.0, 2023-09-14 10:41:39.245
163.0, -20.809474087890877, 187500.0, 187500.0, 187500.0, 187500.0, 187500.0, 187500.0, 187500.0, 0.032, -0.024, 1.022, 192.0, 0.0, 0.0, 0.0, 0.0, 0.0, 0.0, 0.0, 0.0, 0.0, 1.6946808992457194E9, 0.0, 2023-09-14 10:41:39.245
164.0, -39.20495977460859, 187500.0, 187500.0, 187500.0, 187500.0, 187500.0, 187500.0, 187500.0, 0.032, -0.024, 1.022, 192.0, 0.0, 0.0, 0.0, 0.0, 0.0, 0.0, 0.0, 0.0, 0.0, 1.6946808992457435E9, 0.0, 2023-09-14 10:41:39.245
165.0, -43.45179122111693, 187500.0, 187500.0, 187500.0, 187500.0, 187500.0, 187500.0, 187500.0, 0.034, -0.024, 1.016, 192.0, 1.0, 16.0, 255.0, 64.0, 31.0, 192.0, 0.0, 0.0, 0.0, 1.694680899245767E9, 0.0, 2023-09-14 10:41:39.245
166.0, -43.3623842432957, 187500.0, 187500.0, 187500.0, 187500.0, 187500.0, 187500.0, 187500.0, 0.034, -0.024, 1.016, 192.0, 0.0, 0.0, 0.0, 0.0, 0.0, 0.0, 0.0, 0.0, 0.0, 1.6946808992457905E9, 0.0, 2023-09-14 10:41:39.245
167.0, -38.6014626743153, 187500.0, 187500.0, 187500.0, 187500.0, 187500.0, 187500.0, 187500.0, 0.034, -0.024, 1.016, 192.0, 0.0, 0.0, 0.0, 0.0, 0.0, 0.0, 0.0, 0.0, 0.0, 1.6946808992458134E9, 0.0, 2023-09-14 10:41:39.245
168.0, -20.407142687695348, 187500.0, 187500.0, 187500.0, 187500.0, 187500.0, 187500.0, 187500.0, 0.034, -0.024, 1.016, 192.0, 0.0, 0.0, 0.0, 0.0, 0.0, 0.0, 0.0, 0.0, 0.0, 1.6946808992458365E9, 0.0, 2023-09-14 10:41:39.245
169.0, -16.182662985642313, 187500.0, 187500.0, 187500.0, 187500.0, 187500.0, 187500.0, 187500.0, 0.034, -0.024, 1.016, 192.0, 0.0, 0.0, 0.0, 0.0, 0.0, 0.0, 0.0, 0.0, 0.0, 1.6946808992458596E9, 0.0, 2023-09-14 10:41:39.245
170.0, -16.249718219008233, 187500.0, 187500.0, 187500.0, 187500.0, 187500.0, 187500.0, 187500.0, 0.034, -0.024, 1.016, 192.0, 0.0, 0.0, 0.0, 0.0, 0.0, 0.0, 0.0, 0.0, 0.0, 1.694680899245882E9, 0.0, 2023-09-14 10:41:39.245
171.0, -21.010639787988637, 187500.0, 187500.0, 187500.0, 187500.0, 187500.0, 187500.0, 187500.0, 0.034, -0.024, 1.016, 192.0, 0.0, 0.0, 0.0, 0.0, 0.0, 0.0, 0.0, 0.0, 0.0, 1.6946808992459044E9, 0.0, 2023-09-14 10:41:39.245
172.0, -39.38377373025104, 187500.0, 187500.0, 187500.0, 187500.0, 187500.0, 187500.0, 187500.0, 0.034, -0.024, 1.016, 192.0, 0.0, 0.0, 0.0, 0.0, 0.0, 0.0, 0.0, 0.0, 0.0, 1.694680899245927E9, 0.0, 2023-09-14 10:41:39.245
173.0, -43.38473598775101, 187500.0, 187500.0, 187500.0, 187500.0, 187500.0, 187500.0, 187500.0, 0.034, -0.024, 1.016, 192.0, 0.0, 0.0, 0.0, 0.0, 0.0, 0.0, 0.0, 0.0, 0.0, 1.69468089924595E9, 0.0, 2023-09-14 10:41:39.245
174.0, -43.22827377656386, 187500.0, 187500.0, 187500.0, 187500.0, 187500.0, 187500.0, 187500.0, 0.034, -0.024, 1.016, 192.0, 0.0, 0.0, 0.0, 0.0, 0.0, 0.0, 0.0, 0.0, 0.0, 1.694680899245972E9, 0.0, 2023-09-14 10:41:39.245
175.0, -38.914387096689595, 187500.0, 187500.0, 187500.0, 187500.0, 187500.0, 187500.0, 187500.0, 0.046, -0.026000000000000002, 1.018, 192.0, 1.0, 112.0, 255.0, 48.0, 31.0, 208.0, 0.0, 0.0, 0.0, 1.6946808992459943E9, 0.0, 2023-09-14 10:41:39.245
176.0, -20.429494432150655, 187500.0, 187500.0, 187500.0, 187500.0, 187500.0, 187500.0, 187500.0, 0.046, -0.026000000000000002, 1.018, 192.0, 0.0, 0.0, 0.0, 0.0, 0.0, 0.0, 0.0, 0.0, 0.0, 1.6946808992460177E9, 0.0, 2023-09-14 10:41:39.246
177.0, -15.579165885349022, 187500.0, 187500.0, 187500.0, 187500.0, 187500.0, 187500.0, 187500.0, 0.046, -0.026000000000000002, 1.018, 192.0, 0.0, 0.0, 0.0, 0.0, 0.0, 0.0, 0.0, 0.0, 0.0, 1.6946808992460403E9, 0.0, 2023-09-14 10:41:39.246
178.0, -15.713276352080864, 187500.0, 187500.0, 187500.0, 187500.0, 187500.0, 187500.0, 187500.0, 0.046, -0.026000000000000002, 1.018, 192.0, 0.0, 0.0, 0.0, 0.0, 0.0, 0.0, 0.0, 0.0, 0.0, 1.6946808992460659E9, 0.0, 2023-09-14 10:41:39.246
179.0, -20.85417757680149, 187500.0, 187500.0, 187500.0, 187500.0, 187500.0, 187500.0, 187500.0, 0.046, -0.026000000000000002, 1.018, 192.0, 0.0, 0.0, 0.0, 0.0, 0.0, 0.0, 0.0, 0.0, 0.0, 1.69468089924609E9, 0.0, 2023-09-14 10:41:39.246
180.0, -39.11555279678736, 187500.0, 187500.0, 187500.0, 187500.0, 187500.0, 187500.0, 187500.0, 0.046, -0.026000000000000002, 1.018, 192.0, 0.0, 0.0, 0.0, 0.0, 0.0, 0.0, 0.0, 0.0, 0.0, 1.6946808992461126E9, 0.0, 2023-09-14 10:41:39.246
181.0, -43.116515054287326, 187500.0, 187500.0, 187500.0, 187500.0, 187500.0, 187500.0, 187500.0, 0.046, -0.026000000000000002, 1.018, 192.0, 0.0, 0.0, 0.0, 0.0, 0.0, 0.0, 0.0, 0.0, 0.0, 1.6946808992461357E9, 0.0, 2023-09-14 10:41:39.246
182.0, -43.585901687848775, 187500.0, 187500.0, 187500.0, 187500.0, 187500.0, 187500.0, 187500.0, 0.046, -0.026000000000000002, 1.018, 192.0, 0.0, 0.0, 0.0, 0.0, 0.0, 0.0, 0.0, 0.0, 0.0, 1.694680899246158E9, 0.0, 2023-09-14 10:41:39.246
183.0, -38.57911092985999, 187500.0, 187500.0, 187500.0, 187500.0, 187500.0, 187500.0, 187500.0, 0.046, -0.026000000000000002, 1.018, 192.0, 0.0, 0.0, 0.0, 0.0, 0.0, 0.0, 0.0, 0.0, 0.0, 1.6946808992461803E9, 0.0, 2023-09-14 10:41:39.246
184.0, -20.362439198784735, 187500.0, 187500.0, 187500.0, 187500.0, 187500.0, 187500.0, 187500.0, 0.046, -0.026000000000000002, 1.018, 192.0, 0.0, 0.0, 0.0, 0.0, 0.0, 0.0, 0.0, 0.0, 0.0, 1.694680899246203E9, 0.0, 2023-09-14 10:41:39.246
185.0, -15.892090307723322, 187500.0, 187500.0, 187500.0, 187500.0, 187500.0, 187500.0, 187500.0, 0.038, -0.02, 1.01, 192.0, 1.0, 48.0, 255.0, 96.0, 31.0, 144.0, 0.0, 0.0, 0.0, 1.69468089924624E9, 0.0, 2023-09-14 10:41:39.246
186.0, -16.115607752276393, 187500.0, 187500.0, 187500.0, 187500.0, 187500.0, 187500.0, 187500.0, 0.038, -0.02, 1.01, 192.0, 0.0, 0.0, 0.0, 0.0, 0.0, 0.0, 0.0, 0.0, 0.0, 1.6946808992462652E9, 0.0, 2023-09-14 10:41:39.246
187.0, -20.876529321256797, 187500.0, 187500.0, 187500.0, 187500.0, 187500.0, 187500.0, 187500.0, 0.038, -0.02, 1.01, 192.0, 0.0, 0.0, 0.0, 0.0, 0.0, 0.0, 0.0, 0.0, 0.0, 1.6946808992462893E9, 0.0, 2023-09-14 10:41:39.246
188.0, -39.38377373025104, 187500.0, 187500.0, 187500.0, 187500.0, 187500.0, 187500.0, 187500.0, 0.038, -0.02, 1.01, 192.0, 0.0, 0.0, 0.0, 0.0, 0.0, 0.0, 0.0, 0.0, 0.0, 1.694680899246313E9, 0.0, 2023-09-14 10:41:39.246
189.0, -43.51884645448285, 187500.0, 187500.0, 187500.0, 187500.0, 187500.0, 187500.0, 187500.0, 0.038, -0.02, 1.01, 192.0, 0.0, 0.0, 0.0, 0.0, 0.0, 0.0, 0.0, 0.0, 0.0, 1.6946808992463367E9, 0.0, 2023-09-14 10:41:39.246
190.0, -43.3623842432957, 187500.0, 187500.0, 187500.0, 187500.0, 187500.0, 187500.0, 187500.0, 0.038, -0.02, 1.01, 192.0, 0.0, 0.0, 0.0, 0.0, 0.0, 0.0, 0.0, 0.0, 0.0, 1.6946808992463608E9, 0.0, 2023-09-14 10:41:39.246
191.0, -38.80262837441306, 187500.0, 187500.0, 187500.0, 187500.0, 187500.0, 187500.0, 187500.0, 0.038, -0.02, 1.01, 192.0, 0.0, 0.0, 0.0, 0.0, 0.0, 0.0, 0.0, 0.0, 0.0, 1.694680899246384E9, 0.0, 2023-09-14 10:41:39.246
192.0, -20.653011876703726, 187500.0, 187500.0, 187500.0, 187500.0, 187500.0, 187500.0, 187500.0, 0.038, -0.02, 1.01, 192.0, 0.0, 0.0, 0.0, 0.0, 0.0, 0.0, 0.0, 0.0, 0.0, 1.6946808992464068E9, 0.0, 2023-09-14 10:41:39.246
193.0, -16.003849029999856, 187500.0, 187500.0, 187500.0, 187500.0, 187500.0, 187500.0, 187500.0, 0.038, -0.02, 1.01, 192.0, 0.0, 0.0, 0.0, 0.0, 0.0, 0.0, 0.0, 0.0, 0.0, 1.6946808992464292E9, 0.0, 2023-09-14 10:41:39.246
194.0, -16.07090426336578, 187500.0, 187500.0, 187500.0, 187500.0, 187500.0, 187500.0, 187500.0, 0.038, -0.02, 1.01, 192.0, 0.0, 0.0, 0.0, 0.0, 0.0, 0.0, 0.0, 0.0, 0.0, 1.6946808992464523E9, 0.0, 2023-09-14 10:41:39.246
195.0, -21.256508976997015, 187500.0, 187500.0, 187500.0, 187500.0, 187500.0, 187500.0, 187500.0, 0.038, -0.016, 1.004, 192.0, 1.0, 48.0, 255.0, 128.0, 31.0, 96.0, 0.0, 0.0, 0.0, 1.6946808992464757E9, 0.0, 2023-09-14 10:41:39.246
196.0, -39.31671849688512, 187500.0, 187500.0, 187500.0, 187500.0, 187500.0, 187500.0, 187500.0, 0.038, -0.016, 1.004, 192.0, 0.0, 0.0, 0.0, 0.0, 0.0, 0.0, 0.0, 0.0, 0.0, 1.6946808992464983E9, 0.0, 2023-09-14 10:41:39.246
197.0, -43.340032498840394, 187500.0, 187500.0, 187500.0, 187500.0, 187500.0, 187500.0, 187500.0, 0.038, -0.016, 1.004, 192.0, 0.0, 0.0, 0.0, 0.0, 0.0, 0.0, 0.0, 0.0, 0.0, 1.694680899246522E9, 0.0, 2023-09-14 10:41:39.246
198.0, -43.340032498840394, 187500.0, 187500.0, 187500.0, 187500.0, 187500.0, 187500.0, 187500.0, 0.038, -0.016, 1.004, 192.0, 0.0, 0.0, 0.0, 0.0, 0.0, 0.0, 0.0, 0.0, 0.0, 1.6946808992465448E9, 0.0, 2023-09-14 10:41:39.246
199.0, -39.048497563421435, 187500.0, 187500.0, 187500.0, 187500.0, 187500.0, 187500.0, 187500.0, 0.038, -0.016, 1.004, 192.0, 0.0, 0.0, 0.0, 0.0, 0.0, 0.0, 0.0, 0.0, 0.0, 1.6946808992465682E9, 0.0, 2023-09-14 10:41:39.246
200.0, -20.38479094324004, 187500.0, 187500.0, 187500.0, 187500.0, 187500.0, 187500.0, 187500.0, 0.038, -0.016, 1.004, 192.0, 0.0, 0.0, 0.0, 0.0, 0.0, 0.0, 0.0, 0.0, 0.0, 1.6946808992465913E9, 0.0, 2023-09-14 10:41:39.246
201.0, -15.869738563268015, 187500.0, 187500.0, 187500.0, 187500.0, 187500.0, 187500.0, 187500.0, 0.038, -0.016, 1.004, 192.0, 0.0, 0.0, 0.0, 0.0, 0.0, 0.0, 0.0, 0.0, 0.0, 1.6946808992466145E9, 0.0, 2023-09-14 10:41:39.246
202.0, -15.847386818812707, 187500.0, 187500.0, 187500.0, 187500.0, 187500.0, 187500.0, 187500.0, 0.038, -0.016, 1.004, 192.0, 0.0, 0.0, 0.0, 0.0, 0.0, 0.0, 0.0, 0.0, 0.0, 1.6946808992466388E9, 0.0, 2023-09-14 10:41:39.246
203.0, -20.943584554622717, 187500.0, 187500.0, 187500.0, 187500.0, 187500.0, 187500.0, 187500.0, 0.038, -0.016, 1.004, 192.0, 0.0, 0.0, 0.0, 0.0, 0.0, 0.0, 0.0, 0.0, 0.0, 1.694680899246662E9, 0.0, 2023-09-14 10:41:39.246
204.0, -39.18260803015328, 187500.0, 187500.0, 187500.0, 187500.0, 187500.0, 187500.0, 187500.0, 0.038, -0.016, 1.004, 192.0, 0.0, 0.0, 0.0, 0.0, 0.0, 0.0, 0.0, 0.0, 0.0, 1.6946808992466843E9, 0.0, 2023-09-14 10:41:39.246
205.0, -43.63060517675939, 187500.0, 187500.0, 187500.0, 187500.0, 187500.0, 187500.0, 187500.0, 0.032, -0.008, 1.002, 192.0, 1.0, 0.0, 255.0, 192.0, 31.0, 80.0, 0.0, 0.0, 0.0, 1.6946808992467077E9, 0.0, 2023-09-14 10:41:39.246
206.0, -43.56354994339347, 187500.0, 187500.0, 187500.0, 187500.0, 187500.0, 187500.0, 187500.0, 0.032, -0.008, 1.002, 192.0, 0.0, 0.0, 0.0, 0.0, 0.0, 0.0, 0.0, 0.0, 0.0, 1.6946808992467318E9, 0.0, 2023-09-14 10:41:39.246
207.0, -38.82498011886837, 187500.0, 187500.0, 187500.0, 187500.0, 187500.0, 187500.0, 187500.0, 0.032, -0.008, 1.002, 192.0, 0.0, 0.0, 0.0, 0.0, 0.0, 0.0, 0.0, 0.0, 0.0, 1.694680899246756E9, 0.0, 2023-09-14 10:41:39.246
208.0, -20.429494432150655, 187500.0, 187500.0, 187500.0, 187500.0, 187500.0, 187500.0, 187500.0, 0.032, -0.008, 1.002, 192.0, 0.0, 0.0, 0.0, 0.0, 0.0, 0.0, 0.0, 0.0, 0.0, 1.6946808992467787E9, 0.0, 2023-09-14 10:41:39.246
209.0, -15.8250350743574, 187500.0, 187500.0, 187500.0, 187500.0, 187500.0, 187500.0, 187500.0, 0.032, -0.008, 1.002, 192.0, 0.0, 0.0, 0.0, 0.0, 0.0, 0.0, 0.0, 0.0, 0.0, 1.6946808992468023E9, 0.0, 2023-09-14 10:41:39.246
210.0, -15.869738563268015, 187500.0, 187500.0, 187500.0, 187500.0, 187500.0, 187500.0, 187500.0, 0.032, -0.008, 1.002, 192.0, 0.0, 0.0, 0.0, 0.0, 0.0, 0.0, 0.0, 0.0, 0.0, 1.694680899246827E9, 0.0, 2023-09-14 10:41:39.246
211.0, -20.47419792106127, 187500.0, 187500.0, 187500.0, 187500.0, 187500.0, 187500.0, 187500.0, 0.032, -0.008, 1.002, 192.0, 0.0, 0.0, 0.0, 0.0, 0.0, 0.0, 0.0, 0.0, 0.0, 1.6946808992468505E9, 0.0, 2023-09-14 10:41:39.246
212.0, -39.20495977460859, 187500.0, 187500.0, 187500.0, 187500.0, 187500.0, 187500.0, 187500.0, 0.032, -0.008, 1.002, 192.0, 0.0, 0.0, 0.0, 0.0, 0.0, 0.0, 0.0, 0.0, 0.0, 1.6946808992468736E9, 0.0, 2023-09-14 10:41:39.246
213.0, -43.63060517675939, 187500.0, 187500.0, 187500.0, 187500.0, 187500.0, 187500.0, 187500.0, 0.032, -0.008, 1.002, 192.0, 0.0, 0.0, 0.0, 0.0, 0.0, 0.0, 0.0, 0.0, 0.0, 1.6946808992468967E9, 0.0, 2023-09-14 10:41:39.246
214.0, -43.89882611022307, 187500.0, 187500.0, 187500.0, 187500.0, 187500.0, 187500.0, 187500.0, 0.032, -0.008, 1.002, 192.0, 0.0, 0.0, 0.0, 0.0, 0.0, 0.0, 0.0, 0.0, 0.0, 1.69468089924692E9, 0.0, 2023-09-14 10:41:39.246
215.0, -38.80262837441306, 187500.0, 187500.0, 187500.0, 187500.0, 187500.0, 187500.0, 187500.0, 0.032, -0.01, 1.008, 192.0, 1.0, 0.0, 255.0, 176.0, 31.0, 128.0, 0.0, 0.0, 0.0, 1.6946808992469437E9, 0.0, 2023-09-14 10:41:39.246
216.0, -20.38479094324004, 187500.0, 187500.0, 187500.0, 187500.0, 187500.0, 187500.0, 187500.0, 0.032, -0.01, 1.008, 192.0, 0.0, 0.0, 0.0, 0.0, 0.0, 0.0, 0.0, 0.0, 0.0, 1.6946808992469676E9, 0.0, 2023-09-14 10:41:39.246
217.0, -16.093256007821086, 187500.0, 187500.0, 187500.0, 187500.0, 187500.0, 187500.0, 187500.0, 0.032, -0.01, 1.008, 192.0, 0.0, 0.0, 0.0, 0.0, 0.0, 0.0, 0.0, 0.0, 0.0, 1.6946808992469935E9, 0.0, 2023-09-14 10:41:39.246
218.0, -16.1379594967317, 187500.0, 187500.0, 187500.0, 187500.0, 187500.0, 187500.0, 187500.0, 0.032, -0.01, 1.008, 192.0, 0.0, 0.0, 0.0, 0.0, 0.0, 0.0, 0.0, 0.0, 0.0, 1.6946808992470193E9, 0.0, 2023-09-14 10:41:39.247
219.0, -20.85417757680149, 187500.0, 187500.0, 187500.0, 187500.0, 187500.0, 187500.0, 187500.0, 0.032, -0.01, 1.008, 192.0, 0.0, 0.0, 0.0, 0.0, 0.0, 0.0, 0.0, 0.0, 0.0, 1.694680899247044E9, 0.0, 2023-09-14 10:41:39.247
220.0, -39.02614581896613, 187500.0, 187500.0, 187500.0, 187500.0, 187500.0, 187500.0, 187500.0, 0.032, -0.01, 1.008, 192.0, 0.0, 0.0, 0.0, 0.0, 0.0, 0.0, 0.0, 0.0, 0.0, 1.694680899247072E9, 0.0, 2023-09-14 10:41:39.247
221.0, -43.340032498840394, 187500.0, 187500.0, 187500.0, 187500.0, 187500.0, 187500.0, 187500.0, 0.032, -0.01, 1.008, 192.0, 0.0, 0.0, 0.0, 0.0, 0.0, 0.0, 0.0, 0.0, 0.0, 1.6946808992470963E9, 0.0, 2023-09-14 10:41:39.247
222.0, -43.22827377656386, 187500.0, 187500.0, 187500.0, 187500.0, 187500.0, 187500.0, 187500.0, 0.032, -0.01, 1.008, 192.0, 0.0, 0.0, 0.0, 0.0, 0.0, 0.0, 0.0, 0.0, 0.0, 1.6946808992471197E9, 0.0, 2023-09-14 10:41:39.247
223.0, -38.512055696494066, 187500.0, 187500.0, 187500.0, 187500.0, 187500.0, 187500.0, 187500.0, 0.032, -0.01, 1.008, 192.0, 0.0, 0.0, 0.0, 0.0, 0.0, 0.0, 0.0, 0.0, 0.0, 1.6946808992471423E9, 0.0, 2023-09-14 10:41:39.247
224.0, -20.250680476508197, 187500.0, 187500.0, 187500.0, 187500.0, 187500.0, 187500.0, 187500.0, 0.032, -0.01, 1.008, 192.0, 0.0, 0.0, 0.0, 0.0, 0.0, 0.0, 0.0, 0.0, 0.0, 1.6946808992471647E9, 0.0, 2023-09-14 10:41:39.247
225.0, -16.1379594967317, 187500.0, 187500.0, 187500.0, 187500.0, 187500.0, 187500.0, 187500.0, 0.03, -0.016, 1.008, 192.0, 0.0, 240.0, 255.0, 128.0, 31.0, 128.0, 0.0, 0.0, 0.0, 1.6946808992471871E9, 0.0, 2023-09-14 10:41:39.247
226.0, -15.668572863170251, 187500.0, 187500.0, 187500.0, 187500.0, 187500.0, 187500.0, 187500.0, 0.03, -0.016, 1.008, 192.0, 0.0, 0.0, 0.0, 0.0, 0.0, 0.0, 0.0, 0.0, 0.0, 1.6946808992472095E9, 0.0, 2023-09-14 10:41:39.247
227.0, -21.122398510265175, 187500.0, 187500.0, 187500.0, 187500.0, 187500.0, 187500.0, 187500.0, 0.03, -0.016, 1.008, 192.0, 0.0, 0.0, 0.0, 0.0, 0.0, 0.0, 0.0, 0.0, 0.0, 1.6946808992472312E9, 0.0, 2023-09-14 10:41:39.247
228.0, -39.54023594143819, 187500.0, 187500.0, 187500.0, 187500.0, 187500.0, 187500.0, 187500.0, 0.03, -0.016, 1.008, 192.0, 0.0, 0.0, 0.0, 0.0, 0.0, 0.0, 0.0, 0.0, 0.0, 1.6946808992472537E9, 0.0, 2023-09-14 10:41:39.247
229.0, -43.407087732206314, 187500.0, 187500.0, 187500.0, 187500.0, 187500.0, 187500.0, 187500.0, 0.03, -0.016, 1.008, 192.0, 0.0, 0.0, 0.0, 0.0, 0.0, 0.0, 0.0, 0.0, 0.0, 1.694680899247276E9, 0.0, 2023-09-14 10:41:39.247
230.0, -43.585901687848775, 187500.0, 187500.0, 187500.0, 187500.0, 187500.0, 187500.0, 187500.0, 0.03, -0.016, 1.008, 192.0, 0.0, 0.0, 0.0, 0.0, 0.0, 0.0, 0.0, 0.0, 0.0, 1.6946808992473E9, 0.0, 2023-09-14 10:41:39.247
231.0, -38.69086965213653, 187500.0, 187500.0, 187500.0, 187500.0, 187500.0, 187500.0, 187500.0, 0.03, -0.016, 1.008, 192.0, 0.0, 0.0, 0.0, 0.0, 0.0, 0.0, 0.0, 0.0, 0.0, 1.694680899247323E9, 0.0, 2023-09-14 10:41:39.247
232.0, -20.362439198784735, 187500.0, 187500.0, 187500.0, 187500.0, 187500.0, 187500.0, 187500.0, 0.03, -0.016, 1.008, 192.0, 0.0, 0.0, 0.0, 0.0, 0.0, 0.0, 0.0, 0.0, 0.0, 1.694680899247346E9, 0.0, 2023-09-14 10:41:39.247
233.0, -16.115607752276393, 187500.0, 187500.0, 187500.0, 187500.0, 187500.0, 187500.0, 187500.0, 0.03, -0.016, 1.008, 192.0, 0.0, 0.0, 0.0, 0.0, 0.0, 0.0, 0.0, 0.0, 0.0, 1.6946808992473686E9, 0.0, 2023-09-14 10:41:39.247
234.0, -16.07090426336578, 187500.0, 187500.0, 187500.0, 187500.0, 187500.0, 187500.0, 187500.0, 0.03, -0.016, 1.008, 192.0, 0.0, 0.0, 0.0, 0.0, 0.0, 0.0, 0.0, 0.0, 0.0, 1.6946808992473912E9, 0.0, 2023-09-14 10:41:39.247
235.0, -21.2118054880864, 187500.0, 187500.0, 187500.0, 187500.0, 187500.0, 187500.0, 187500.0, 0.032, -0.018000000000000002, 1.008, 192.0, 1.0, 0.0, 255.0, 112.0, 31.0, 128.0, 0.0, 0.0, 0.0, 1.694680899247414E9, 0.0, 2023-09-14 10:41:39.247
236.0, -39.36142198579574, 187500.0, 187500.0, 187500.0, 187500.0, 187500.0, 187500.0, 187500.0, 0.032, -0.018000000000000002, 1.008, 192.0, 0.0, 0.0, 0.0, 0.0, 0.0, 0.0, 0.0, 0.0, 0.0, 1.6946808992474365E9, 0.0, 2023-09-14 10:41:39.247
237.0, -43.38473598775101, 187500.0, 187500.0, 187500.0, 187500.0, 187500.0, 187500.0, 187500.0, 0.032, -0.018000000000000002, 1.008, 192.0, 0.0, 0.0, 0.0, 0.0, 0.0, 0.0, 0.0, 0.0, 0.0, 1.694680899247465E9, 0.0, 2023-09-14 10:41:39.247
238.0, -43.407087732206314, 187500.0, 187500.0, 187500.0, 187500.0, 187500.0, 187500.0, 187500.0, 0.032, -0.018000000000000002, 1.008, 192.0, 0.0, 0.0, 0.0, 0.0, 0.0, 0.0, 0.0, 0.0, 0.0, 1.6946808992474885E9, 0.0, 2023-09-14 10:41:39.247
239.0, -38.9367388411449, 187500.0, 187500.0, 187500.0, 187500.0, 187500.0, 187500.0, 187500.0, 0.032, -0.018000000000000002, 1.008, 192.0, 0.0, 0.0, 0.0, 0.0, 0.0, 0.0, 0.0, 0.0, 0.0, 1.6946808992475114E9, 0.0, 2023-09-14 10:41:39.247
240.0, -20.273032220963504, 187500.0, 187500.0, 187500.0, 187500.0, 187500.0, 187500.0, 187500.0, 0.032, -0.018000000000000002, 1.008, 192.0, 0.0, 0.0, 0.0, 0.0, 0.0, 0.0, 0.0, 0.0, 0.0, 1.6946808997253973E9, 0.0, 2023-09-14 10:41:39.725
241.0, -15.959145541089242, 187500.0, 187500.0, 187500.0, 187500.0, 187500.0, 187500.0, 187500.0, 0.032, -0.018000000000000002, 1.008, 192.0, 0.0, 0.0, 0.0, 0.0, 0.0, 0.0, 0.0, 0.0, 0.0, 1.6946808997254567E9, 0.0, 2023-09-14 10:41:39.725
242.0, -16.182662985642313, 187500.0, 187500.0, 187500.0, 187500.0, 187500.0, 187500.0, 187500.0, 0.032, -0.018000000000000002, 1.008, 192.0, 0.0, 0.0, 0.0, 0.0, 0.0, 0.0, 0.0, 0.0, 0.0, 1.694680899725494E9, 0.0, 2023-09-14 10:41:39.725
243.0, -21.167101999175788, 187500.0, 187500.0, 187500.0, 187500.0, 187500.0, 187500.0, 187500.0, 0.032, -0.018000000000000002, 1.008, 192.0, 0.0, 0.0, 0.0, 0.0, 0.0, 0.0, 0.0, 0.0, 0.0, 1.6946808997255173E9, 0.0, 2023-09-14 10:41:39.725
244.0, -39.42847721916166, 187500.0, 187500.0, 187500.0, 187500.0, 187500.0, 187500.0, 187500.0, 0.032, -0.018000000000000002, 1.008, 192.0, 0.0, 0.0, 0.0, 0.0, 0.0, 0.0, 0.0, 0.0, 0.0, 1.694680899725554E9, 0.0, 2023-09-14 10:41:39.725
245.0, -43.585901687848775, 187500.0, 187500.0, 187500.0, 187500.0, 187500.0, 187500.0, 187500.0, 0.028, -0.016, 1.008, 192.0, 0.0, 224.0, 255.0, 128.0, 31.0, 128.0, 0.0, 0.0, 0.0, 1.6946808997255776E9, 0.0, 2023-09-14 10:41:39.725
246.0, -43.407087732206314, 187500.0, 187500.0, 187500.0, 187500.0, 187500.0, 187500.0, 187500.0, 0.028, -0.016, 1.008, 192.0, 0.0, 0.0, 0.0, 0.0, 0.0, 0.0, 0.0, 0.0, 0.0, 1.6946808997255967E9, 0.0, 2023-09-14 10:41:39.725
247.0, -38.713221396591834, 187500.0, 187500.0, 187500.0, 187500.0, 187500.0, 187500.0, 187500.0, 0.028, -0.016, 1.008, 192.0, 0.0, 0.0, 0.0, 0.0, 0.0, 0.0, 0.0, 0.0, 0.0, 1.694680899725624E9, 0.0, 2023-09-14 10:41:39.725
248.0, -20.250680476508197, 187500.0, 187500.0, 187500.0, 187500.0, 187500.0, 187500.0, 187500.0, 0.028, -0.016, 1.008, 192.0, 0.0, 0.0, 0.0, 0.0, 0.0, 0.0, 0.0, 0.0, 0.0, 1.6946808997256382E9, 0.0, 2023-09-14 10:41:39.725
249.0, -16.003849029999856, 187500.0, 187500.0, 187500.0, 187500.0, 187500.0, 187500.0, 187500.0, 0.028, -0.016, 1.008, 192.0, 0.0, 0.0, 0.0, 0.0, 0.0, 0.0, 0.0, 0.0, 0.0, 1.6946808997256525E9, 0.0, 2023-09-14 10:41:39.725
250.0, -16.294421707918847, 187500.0, 187500.0, 187500.0, 187500.0, 187500.0, 187500.0, 187500.0, 0.028, -0.016, 1.008, 192.0, 0.0, 0.0, 0.0, 0.0, 0.0, 0.0, 0.0, 0.0, 0.0, 1.694680899725666E9, 0.0, 2023-09-14 10:41:39.725
251.0, -21.189453743631095, 187500.0, 187500.0, 187500.0, 187500.0, 187500.0, 187500.0, 187500.0, 0.028, -0.016, 1.008, 192.0, 0.0, 0.0, 0.0, 0.0, 0.0, 0.0, 0.0, 0.0, 0.0, 1.6946808997256787E9, 0.0, 2023-09-14 10:41:39.725
252.0, -39.07084930787675, 187500.0, 187500.0, 187500.0, 187500.0, 187500.0, 187500.0, 187500.0, 0.028, -0.016, 1.008, 192.0, 0.0, 0.0, 0.0, 0.0, 0.0, 0.0, 0.0, 0.0, 0.0, 1.6946808997256927E9, 0.0, 2023-09-14 10:41:39.725
253.0, -43.340032498840394, 187500.0, 187500.0, 187500.0, 187500.0, 187500.0, 187500.0, 187500.0, 0.028, -0.016, 1.008, 192.0, 0.0, 0.0, 0.0, 0.0, 0.0, 0.0, 0.0, 0.0, 0.0, 1.694680899725706E9, 0.0, 2023-09-14 10:41:39.725
254.0, -43.720012154580616, 187500.0, 187500.0, 187500.0, 187500.0, 187500.0, 187500.0, 187500.0, 0.03, -0.016, 1.006, 192.0, 0.0, 240.0, 255.0, 128.0, 31.0, 112.0, 0.0, 0.0, 0.0, 1.6946808997257192E9, 0.0, 2023-09-14 10:41:39.725
255.0, -38.73557314104714, 187500.0, 187500.0, 187500.0, 187500.0, 187500.0, 187500.0, 187500.0, 0.03, -0.016, 1.006, 192.0, 0.0, 0.0, 0.0, 0.0, 0.0, 0.0, 0.0, 0.0, 0.0, 1.694680899725733E9, 0.0, 2023-09-14 10:41:39.725
0.0, -20.205976987597584, 187500.0, 187500.0, 187500.0, 187500.0, 187500.0, 187500.0, 187500.0, 0.03, -0.016, 1.006, 192.0, 0.0, 0.0, 0.0, 0.0, 0.0, 0.0, 0.0, 0.0, 0.0, 1.694680899725746E9, 0.0, 2023-09-14 10:41:39.725
1.0, -16.07090426336578, 187500.0, 187500.0, 187500.0, 187500.0, 187500.0, 187500.0, 187500.0, 0.03, -0.016, 1.006, 192.0, 0.0, 0.0, 0.0, 0.0, 0.0, 0.0, 0.0, 0.0, 0.0, 1.6946808997257593E9, 0.0, 2023-09-14 10:41:39.725
2.0, -15.914442052178629, 187500.0, 187500.0, 187500.0, 187500.0, 187500.0, 187500.0, 187500.0, 0.03, -0.016, 1.006, 192.0, 0.0, 0.0, 0.0, 0.0, 0.0, 0.0, 0.0, 0.0, 0.0, 1.6946808997257798E9, 0.0, 2023-09-14 10:41:39.725
3.0, -21.032991532443948, 187500.0, 187500.0, 187500.0, 187500.0, 187500.0, 187500.0, 187500.0, 0.03, -0.016, 1.006, 192.0, 0.0, 0.0, 0.0, 0.0, 0.0, 0.0, 0.0, 0.0, 0.0, 1.6946808997257996E9, 0.0, 2023-09-14 10:41:39.725
4.0, -39.49553245252758, 187500.0, 187500.0, 187500.0, 187500.0, 187500.0, 187500.0, 187500.0, 0.03, -0.016, 1.006, 192.0, 0.0, 0.0, 0.0, 0.0, 0.0, 0.0, 0.0, 0.0, 0.0, 1.694680899725813E9, 0.0, 2023-09-14 10:41:39.725
5.0, -43.652956921214695, 187500.0, 187500.0, 187500.0, 187500.0, 187500.0, 187500.0, 187500.0, 0.03, -0.016, 1.006, 192.0, 0.0, 0.0, 0.0, 0.0, 0.0, 0.0, 0.0, 0.0, 0.0, 1.694680899725826E9, 0.0, 2023-09-14 10:41:39.725
6.0, -43.38473598775101, 187500.0, 187500.0, 187500.0, 187500.0, 187500.0, 187500.0, 187500.0, 0.03, -0.016, 1.006, 192.0, 0.0, 0.0, 0.0, 0.0, 0.0, 0.0, 0.0, 0.0, 0.0, 1.6946808997258391E9, 0.0, 2023-09-14 10:41:39.725
7.0, -38.713221396591834, 187500.0, 187500.0, 187500.0, 187500.0, 187500.0, 187500.0, 187500.0, 0.03, -0.016, 1.006, 192.0, 0.0, 0.0, 0.0, 0.0, 0.0, 0.0, 0.0, 0.0, 0.0, 1.694680899725852E9, 0.0, 2023-09-14 10:41:39.725
8.0, -20.295383965418814, 187500.0, 187500.0, 187500.0, 187500.0, 187500.0, 187500.0, 187500.0, 0.03, -0.016, 1.002, 192.0, 0.0, 240.0, 255.0, 128.0, 31.0, 80.0, 0.0, 0.0, 0.0, 1.6946808997258651E9, 0.0, 2023-09-14 10:41:39.725
9.0, -16.07090426336578, 187500.0, 187500.0, 187500.0, 187500.0, 187500.0, 187500.0, 187500.0, 0.03, -0.016, 1.002, 192.0, 0.0, 0.0, 0.0, 0.0, 0.0, 0.0, 0.0, 0.0, 0.0, 1.6946808997258787E9, 0.0, 2023-09-14 10:41:39.725
10.0, -16.07090426336578, 187500.0, 187500.0, 187500.0, 187500.0, 187500.0, 187500.0, 187500.0, 0.03, -0.016, 1.002, 192.0, 0.0, 0.0, 0.0, 0.0, 0.0, 0.0, 0.0, 0.0, 0.0, 1.6946808997258916E9, 0.0, 2023-09-14 10:41:39.725
11.0, -20.898881065712104, 187500.0, 187500.0, 187500.0, 187500.0, 187500.0, 187500.0, 187500.0, 0.03, -0.016, 1.002, 192.0, 0.0, 0.0, 0.0, 0.0, 0.0, 0.0, 0.0, 0.0, 0.0, 1.6946808997259047E9, 0.0, 2023-09-14 10:41:39.725
12.0, -39.20495977460859, 187500.0, 187500.0, 187500.0, 187500.0, 187500.0, 187500.0, 187500.0, 0.03, -0.016, 1.002, 192.0, 0.0, 0.0, 0.0, 0.0, 0.0, 0.0, 0.0, 0.0, 0.0, 1.6946808997259176E9, 0.0, 2023-09-14 10:41:39.725
13.0, -43.74236389903592, 187500.0, 187500.0, 187500.0, 187500.0, 187500.0, 187500.0, 187500.0, 0.03, -0.016, 1.002, 192.0, 0.0, 0.0, 0.0, 0.0, 0.0, 0.0, 0.0, 0.0, 0.0, 1.6946808997259307E9, 0.0, 2023-09-14 10:41:39.725
14.0, -43.83177087685715, 187500.0, 187500.0, 187500.0, 187500.0, 187500.0, 187500.0, 187500.0, 0.03, -0.016, 1.002, 192.0, 0.0, 0.0, 0.0, 0.0, 0.0, 0.0, 0.0, 0.0, 0.0, 1.6946808997259445E9, 0.0, 2023-09-14 10:41:39.725
15.0, -38.713221396591834, 187500.0, 187500.0, 187500.0, 187500.0, 187500.0, 187500.0, 187500.0, 0.03, -0.016, 1.002, 192.0, 0.0, 0.0, 0.0, 0.0, 0.0, 0.0, 0.0, 0.0, 0.0, 1.6946808997259574E9, 0.0, 2023-09-14 10:41:39.725
16.0, -20.09421826532105, 187500.0, 187500.0, 187500.0, 187500.0, 187500.0, 187500.0, 187500.0, 0.03, -0.016, 1.002, 192.0, 0.0, 0.0, 0.0, 0.0, 0.0, 0.0, 0.0, 0.0, 0.0, 1.6946808997259705E9, 0.0, 2023-09-14 10:41:39.725
17.0, -15.780331585446786, 187500.0, 187500.0, 187500.0, 187500.0, 187500.0, 187500.0, 187500.0, 0.03, -0.016, 1.002, 192.0, 0.0, 0.0, 0.0, 0.0, 0.0, 0.0, 0.0, 0.0, 0.0, 1.6946808997259839E9, 0.0, 2023-09-14 10:41:39.725
18.0, -15.892090307723322, 187500.0, 187500.0, 187500.0, 187500.0, 187500.0, 187500.0, 187500.0, 0.03, -0.018000000000000002, 1.002, 192.0, 0.0, 240.0, 255.0, 112.0, 31.0, 80.0, 0.0, 0.0, 0.0, 1.694680899725997E9, 0.0, 2023-09-14 10:41:39.725
19.0, -21.055343276899254, 187500.0, 187500.0, 187500.0, 187500.0, 187500.0, 187500.0, 187500.0, 0.03, -0.018000000000000002, 1.002, 192.0, 0.0, 0.0, 0.0, 0.0, 0.0, 0.0, 0.0, 0.0, 0.0, 1.69468089972601E9, 0.0, 2023-09-14 10:41:39.726
20.0, -39.42847721916166, 187500.0, 187500.0, 187500.0, 187500.0, 187500.0, 187500.0, 187500.0, 0.03, -0.018000000000000002, 1.002, 192.0, 0.0, 0.0, 0.0, 0.0, 0.0, 0.0, 0.0, 0.0, 0.0, 1.694680899726023E9, 0.0, 2023-09-14 10:41:39.726
21.0, -43.74236389903592, 187500.0, 187500.0, 187500.0, 187500.0, 187500.0, 187500.0, 187500.0, 0.03, -0.018000000000000002, 1.002, 192.0, 0.0, 0.0, 0.0, 0.0, 0.0, 0.0, 0.0, 0.0, 0.0, 1.694680899726036E9, 0.0, 2023-09-14 10:41:39.726
22.0, -43.60825343230408, 187500.0, 187500.0, 187500.0, 187500.0, 187500.0, 187500.0, 187500.0, 0.03, -0.018000000000000002, 1.002, 192.0, 0.0, 0.0, 0.0, 0.0, 0.0, 0.0, 0.0, 0.0, 0.0, 1.6946808997260492E9, 0.0, 2023-09-14 10:41:39.726
23.0, -38.847331863323674, 187500.0, 187500.0, 187500.0, 187500.0, 187500.0, 187500.0, 187500.0, 0.03, -0.018000000000000002, 1.002, 192.0, 0.0, 0.0, 0.0, 0.0, 0.0, 0.0, 0.0, 0.0, 0.0, 1.6946808997260623E9, 0.0, 2023-09-14 10:41:39.726
24.0, -20.429494432150655, 187500.0, 187500.0, 187500.0, 187500.0, 187500.0, 187500.0, 187500.0, 0.03, -0.018000000000000002, 1.002, 192.0, 0.0, 0.0, 0.0, 0.0, 0.0, 0.0, 0.0, 0.0, 0.0, 1.6946808997260754E9, 0.0, 2023-09-14 10:41:39.726
25.0, -16.115607752276393, 187500.0, 187500.0, 187500.0, 187500.0, 187500.0, 187500.0, 187500.0, 0.03, -0.018000000000000002, 1.002, 192.0, 0.0, 0.0, 0.0, 0.0, 0.0, 0.0, 0.0, 0.0, 0.0, 1.6946808997260883E9, 0.0, 2023-09-14 10:41:39.726
26.0, -15.556814140893716, 187500.0, 187500.0, 187500.0, 187500.0, 187500.0, 187500.0, 187500.0, 0.03, -0.018000000000000002, 1.002, 192.0, 0.0, 0.0, 0.0, 0.0, 0.0, 0.0, 0.0, 0.0, 0.0, 1.6946808997261016E9, 0.0, 2023-09-14 10:41:39.726
27.0, -20.809474087890877, 187500.0, 187500.0, 187500.0, 187500.0, 187500.0, 187500.0, 187500.0, 0.03, -0.018000000000000002, 1.002, 192.0, 0.0, 0.0, 0.0, 0.0, 0.0, 0.0, 0.0, 0.0, 0.0, 1.6946808997261147E9, 0.0, 2023-09-14 10:41:39.726
28.0, -39.18260803015328, 187500.0, 187500.0, 187500.0, 187500.0, 187500.0, 187500.0, 187500.0, 0.028, -0.016, 1.004, 192.0, 0.0, 224.0, 255.0, 128.0, 31.0, 96.0, 0.0, 0.0, 0.0, 1.694680899726128E9, 0.0, 2023-09-14 10:41:39.726
29.0, -43.29532900992978, 187500.0, 187500.0, 187500.0, 187500.0, 187500.0, 187500.0, 187500.0, 0.028, -0.016, 1.004, 192.0, 0.0, 0.0, 0.0, 0.0, 0.0, 0.0, 0.0, 0.0, 0.0, 1.6946808997261412E9, 0.0, 2023-09-14 10:41:39.726
30.0, -43.29532900992978, 187500.0, 187500.0, 187500.0, 187500.0, 187500.0, 187500.0, 187500.0, 0.028, -0.016, 1.004, 192.0, 0.0, 0.0, 0.0, 0.0, 0.0, 0.0, 0.0, 0.0, 0.0, 1.694680899726154E9, 0.0, 2023-09-14 10:41:39.726
31.0, -38.646166163225914, 187500.0, 187500.0, 187500.0, 187500.0, 187500.0, 187500.0, 187500.0, 0.028, -0.016, 1.004, 192.0, 0.0, 0.0, 0.0, 0.0, 0.0, 0.0, 0.0, 0.0, 0.0, 1.6946808997261672E9, 0.0, 2023-09-14 10:41:39.726
32.0, -20.071866520865743, 187500.0, 187500.0, 187500.0, 187500.0, 187500.0, 187500.0, 187500.0, 0.028, -0.016, 1.004, 192.0, 0.0, 0.0, 0.0, 0.0, 0.0, 0.0, 0.0, 0.0, 0.0, 1.6946808997261803E9, 0.0, 2023-09-14 10:41:39.726
33.0, -15.936793796633935, 187500.0, 187500.0, 187500.0, 187500.0, 187500.0, 187500.0, 187500.0, 0.028, -0.016, 1.004, 192.0, 0.0, 0.0, 0.0, 0.0, 0.0, 0.0, 0.0, 0.0, 0.0, 1.6946808997261932E9, 0.0, 2023-09-14 10:41:39.726
34.0, -15.892090307723322, 187500.0, 187500.0, 187500.0, 187500.0, 187500.0, 187500.0, 187500.0, 0.028, -0.016, 1.004, 192.0, 0.0, 0.0, 0.0, 0.0, 0.0, 0.0, 0.0, 0.0, 0.0, 1.6946808997262063E9, 0.0, 2023-09-14 10:41:39.726
35.0, -20.742418854524953, 187500.0, 187500.0, 187500.0, 187500.0, 187500.0, 187500.0, 187500.0, 0.028, -0.016, 1.004, 192.0, 0.0, 0.0, 0.0, 0.0, 0.0, 0.0, 0.0, 0.0, 0.0, 1.6946808997262194E9, 0.0, 2023-09-14 10:41:39.726
36.0, -39.093201052332056, 187500.0, 187500.0, 187500.0, 187500.0, 187500.0, 187500.0, 187500.0, 0.028, -0.016, 1.004, 192.0, 0.0, 0.0, 0.0, 0.0, 0.0, 0.0, 0.0, 0.0, 0.0, 1.6946808997262323E9, 0.0, 2023-09-14 10:41:39.726
37.0, -43.51884645448285, 187500.0, 187500.0, 187500.0, 187500.0, 187500.0, 187500.0, 187500.0, 0.028, -0.016, 1.004, 192.0, 0.0, 0.0, 0.0, 0.0, 0.0, 0.0, 0.0, 0.0, 0.0, 1.6946808997262456E9, 0.0, 2023-09-14 10:41:39.726
38.0, -43.27297726547447, 187500.0, 187500.0, 187500.0, 187500.0, 187500.0, 187500.0, 187500.0, 0.032, -0.022, 1.0, 192.0, 1.0, 0.0, 255.0, 80.0, 31.0, 64.0, 0.0, 0.0, 0.0, 1.6946808997262585E9, 0.0, 2023-09-14 10:41:39.726
39.0, -38.6014626743153, 187500.0, 187500.0, 187500.0, 187500.0, 187500.0, 187500.0, 187500.0, 0.032, -0.022, 1.0, 192.0, 0.0, 0.0, 0.0, 0.0, 0.0, 0.0, 0.0, 0.0, 0.0, 1.6946808997262716E9, 0.0, 2023-09-14 10:41:39.726
40.0, -20.429494432150655, 187500.0, 187500.0, 187500.0, 187500.0, 187500.0, 187500.0, 187500.0, 0.032, -0.022, 1.0, 192.0, 0.0, 0.0, 0.0, 0.0, 0.0, 0.0, 0.0, 0.0, 0.0, 1.6946808997262847E9, 0.0, 2023-09-14 10:41:39.726
41.0, -16.003849029999856, 187500.0, 187500.0, 187500.0, 187500.0, 187500.0, 187500.0, 187500.0, 0.032, -0.022, 1.0, 192.0, 0.0, 0.0, 0.0, 0.0, 0.0, 0.0, 0.0, 0.0, 0.0, 1.6946808997262976E9, 0.0, 2023-09-14 10:41:39.726
42.0, -15.802683329902093, 187500.0, 187500.0, 187500.0, 187500.0, 187500.0, 187500.0, 187500.0, 0.032, -0.022, 1.0, 192.0, 0.0, 0.0, 0.0, 0.0, 0.0, 0.0, 0.0, 0.0, 0.0, 1.6946808997263112E9, 0.0, 2023-09-14 10:41:39.726
43.0, -20.76477059898026, 187500.0, 187500.0, 187500.0, 187500.0, 187500.0, 187500.0, 187500.0, 0.032, -0.022, 1.0, 192.0, 0.0, 0.0, 0.0, 0.0, 0.0, 0.0, 0.0, 0.0, 0.0, 1.694680899726324E9, 0.0, 2023-09-14 10:41:39.726
44.0, -39.42847721916166, 187500.0, 187500.0, 187500.0, 187500.0, 187500.0, 187500.0, 187500.0, 0.032, -0.022, 1.0, 192.0, 0.0, 0.0, 0.0, 0.0, 0.0, 0.0, 0.0, 0.0, 0.0, 1.6946808997263372E9, 0.0, 2023-09-14 10:41:39.726
45.0, -43.45179122111693, 187500.0, 187500.0, 187500.0, 187500.0, 187500.0, 187500.0, 187500.0, 0.032, -0.022, 1.0, 192.0, 0.0, 0.0, 0.0, 0.0, 0.0, 0.0, 0.0, 0.0, 0.0, 1.6946808997263503E9, 0.0, 2023-09-14 10:41:39.726
46.0, -43.27297726547447, 187500.0, 187500.0, 187500.0, 187500.0, 187500.0, 187500.0, 187500.0, 0.032, -0.022, 1.0, 192.0, 0.0, 0.0, 0.0, 0.0, 0.0, 0.0, 0.0, 0.0, 0.0, 1.6946808997263632E9, 0.0, 2023-09-14 10:41:39.726
47.0, -38.75792488550245, 187500.0, 187500.0, 187500.0, 187500.0, 187500.0, 187500.0, 187500.0, 0.032, -0.022, 1.0, 192.0, 0.0, 0.0, 0.0, 0.0, 0.0, 0.0, 0.0, 0.0, 0.0, 1.6946808997263763E9, 0.0, 2023-09-14 10:41:39.726
48.0, -20.518901409971882, 187500.0, 187500.0, 187500.0, 187500.0, 187500.0, 187500.0, 187500.0, 0.028, -0.018000000000000002, 1.004, 192.0, 0.0, 224.0, 255.0, 112.0, 31.0, 96.0, 0.0, 0.0, 0.0, 1.6946808997263896E9, 0.0, 2023-09-14 10:41:39.726
49.0, -16.294421707918847, 187500.0, 187500.0, 187500.0, 187500.0, 187500.0, 187500.0, 187500.0, 0.028, -0.018000000000000002, 1.004, 192.0, 0.0, 0.0, 0.0, 0.0, 0.0, 0.0, 0.0, 0.0, 0.0, 1.6946808997264028E9, 0.0, 2023-09-14 10:41:39.726
50.0, -16.026200774455162, 187500.0, 187500.0, 187500.0, 187500.0, 187500.0, 187500.0, 187500.0, 0.028, -0.018000000000000002, 1.004, 192.0, 0.0, 0.0, 0.0, 0.0, 0.0, 0.0, 0.0, 0.0, 0.0, 1.694680899726416E9, 0.0, 2023-09-14 10:41:39.726
51.0, -20.76477059898026, 187500.0, 187500.0, 187500.0, 187500.0, 187500.0, 187500.0, 187500.0, 0.028, -0.018000000000000002, 1.004, 192.0, 0.0, 0.0, 0.0, 0.0, 0.0, 0.0, 0.0, 0.0, 0.0, 1.694680899726429E9, 0.0, 2023-09-14 10:41:39.726
52.0, -39.40612547470635, 187500.0, 187500.0, 187500.0, 187500.0, 187500.0, 187500.0, 187500.0, 0.028, -0.018000000000000002, 1.004, 192.0, 0.0, 0.0, 0.0, 0.0, 0.0, 0.0, 0.0, 0.0, 0.0, 1.694680899726442E9, 0.0, 2023-09-14 10:41:39.726
53.0, -43.38473598775101, 187500.0, 187500.0, 187500.0, 187500.0, 187500.0, 187500.0, 187500.0, 0.028, -0.018000000000000002, 1.004, 192.0, 0.0, 0.0, 0.0, 0.0, 0.0, 0.0, 0.0, 0.0, 0.0, 1.6946808997264552E9, 0.0, 2023-09-14 10:41:39.726
54.0, -43.474142965572234, 187500.0, 187500.0, 187500.0, 187500.0, 187500.0, 187500.0, 187500.0, 0.028, -0.018000000000000002, 1.004, 192.0, 0.0, 0.0, 0.0, 0.0, 0.0, 0.0, 0.0, 0.0, 0.0, 1.694680899726468E9, 0.0, 2023-09-14 10:41:39.726
55.0, -38.75792488550245, 187500.0, 187500.0, 187500.0, 187500.0, 187500.0, 187500.0, 187500.0, 0.028, -0.018000000000000002, 1.004, 192.0, 0.0, 0.0, 0.0, 0.0, 0.0, 0.0, 0.0, 0.0, 0.0, 1.6946808997264814E9, 0.0, 2023-09-14 10:41:39.726
56.0, -20.09421826532105, 187500.0, 187500.0, 187500.0, 187500.0, 187500.0, 187500.0, 187500.0, 0.028, -0.018000000000000002, 1.004, 192.0, 0.0, 0.0, 0.0, 0.0, 0.0, 0.0, 0.0, 0.0, 0.0, 1.6946808997264946E9, 0.0, 2023-09-14 10:41:39.726
57.0, -16.182662985642313, 187500.0, 187500.0, 187500.0, 187500.0, 187500.0, 187500.0, 187500.0, 0.028, -0.018000000000000002, 1.004, 192.0, 0.0, 0.0, 0.0, 0.0, 0.0, 0.0, 0.0, 0.0, 0.0, 1.694680899726508E9, 0.0, 2023-09-14 10:41:39.726
58.0, -16.249718219008233, 187500.0, 187500.0, 187500.0, 187500.0, 187500.0, 187500.0, 187500.0, 0.032, -0.018000000000000002, 1.004, 192.0, 1.0, 0.0, 255.0, 112.0, 31.0, 96.0, 0.0, 0.0, 0.0, 1.6946808997265208E9, 0.0, 2023-09-14 10:41:39.726
59.0, -21.2118054880864, 187500.0, 187500.0, 187500.0, 187500.0, 187500.0, 187500.0, 187500.0, 0.032, -0.018000000000000002, 1.004, 192.0, 0.0, 0.0, 0.0, 0.0, 0.0, 0.0, 0.0, 0.0, 0.0, 1.6946808997265341E9, 0.0, 2023-09-14 10:41:39.726
60.0, -39.20495977460859, 187500.0, 187500.0, 187500.0, 187500.0, 187500.0, 187500.0, 187500.0, 0.032, -0.018000000000000002, 1.004, 192.0, 0.0, 0.0, 0.0, 0.0, 0.0, 0.0, 0.0, 0.0, 0.0, 1.6946808997265472E9, 0.0, 2023-09-14 10:41:39.726
61.0, -43.76471564349123, 187500.0, 187500.0, 187500.0, 187500.0, 187500.0, 187500.0, 187500.0, 0.032, -0.018000000000000002, 1.004, 192.0, 0.0, 0.0, 0.0, 0.0, 0.0, 0.0, 0.0, 0.0, 0.0, 1.6946808997265604E9, 0.0, 2023-09-14 10:41:39.726
62.0, -43.60825343230408, 187500.0, 187500.0, 187500.0, 187500.0, 187500.0, 187500.0, 187500.0, 0.032, -0.018000000000000002, 1.004, 192.0, 0.0, 0.0, 0.0, 0.0, 0.0, 0.0, 0.0, 0.0, 0.0, 1.6946808997265737E9, 0.0, 2023-09-14 10:41:39.726
63.0, -38.646166163225914, 187500.0, 187500.0, 187500.0, 187500.0, 187500.0, 187500.0, 187500.0, 0.032, -0.018000000000000002, 1.004, 192.0, 0.0, 0.0, 0.0, 0.0, 0.0, 0.0, 0.0, 0.0, 0.0, 1.6946808997265873E9, 0.0, 2023-09-14 10:41:39.726
64.0, -20.273032220963504, 187500.0, 187500.0, 187500.0, 187500.0, 187500.0, 187500.0, 187500.0, 0.032, -0.018000000000000002, 1.004, 192.0, 0.0, 0.0, 0.0, 0.0, 0.0, 0.0, 0.0, 0.0, 0.0, 1.6946808997266004E9, 0.0, 2023-09-14 10:41:39.726
65.0, -15.690924607625558, 187500.0, 187500.0, 187500.0, 187500.0, 187500.0, 187500.0, 187500.0, 0.032, -0.018000000000000002, 1.004, 192.0, 0.0, 0.0, 0.0, 0.0, 0.0, 0.0, 0.0, 0.0, 0.0, 1.6946808997266135E9, 0.0, 2023-09-14 10:41:39.726
66.0, -15.847386818812707, 187500.0, 187500.0, 187500.0, 187500.0, 187500.0, 187500.0, 187500.0, 0.032, -0.018000000000000002, 1.004, 192.0, 0.0, 0.0, 0.0, 0.0, 0.0, 0.0, 0.0, 0.0, 0.0, 1.6946808997266269E9, 0.0, 2023-09-14 10:41:39.726
67.0, -21.032991532443948, 187500.0, 187500.0, 187500.0, 187500.0, 187500.0, 187500.0, 187500.0, 0.032, -0.018000000000000002, 1.004, 192.0, 0.0, 0.0, 0.0, 0.0, 0.0, 0.0, 0.0, 0.0, 0.0, 1.69468089972664E9, 0.0, 2023-09-14 10:41:39.726
68.0, -39.38377373025104, 187500.0, 187500.0, 187500.0, 187500.0, 187500.0, 187500.0, 187500.0, 0.034, -0.018000000000000002, 0.992, 192.0, 1.0, 16.0, 255.0, 112.0, 31.0, 0.0, 0.0, 0.0, 0.0, 1.694680899726653E9, 0.0, 2023-09-14 10:41:39.726
69.0, -43.3623842432957, 187500.0, 187500.0, 187500.0, 187500.0, 187500.0, 187500.0, 187500.0, 0.034, -0.018000000000000002, 0.992, 192.0, 0.0, 0.0, 0.0, 0.0, 0.0, 0.0, 0.0, 0.0, 0.0, 1.6946808997266667E9, 0.0, 2023-09-14 10:41:39.726
70.0, -43.27297726547447, 187500.0, 187500.0, 187500.0, 187500.0, 187500.0, 187500.0, 187500.0, 0.034, -0.018000000000000002, 0.992, 192.0, 0.0, 0.0, 0.0, 0.0, 0.0, 0.0, 0.0, 0.0, 0.0, 1.6946808997266803E9, 0.0, 2023-09-14 10:41:39.726
71.0, -38.914387096689595, 187500.0, 187500.0, 187500.0, 187500.0, 187500.0, 187500.0, 187500.0, 0.034, -0.018000000000000002, 0.992, 192.0, 0.0, 0.0, 0.0, 0.0, 0.0, 0.0, 0.0, 0.0, 0.0, 1.6946808997266936E9, 0.0, 2023-09-14 10:41:39.726
72.0, -20.653011876703726, 187500.0, 187500.0, 187500.0, 187500.0, 187500.0, 187500.0, 187500.0, 0.034, -0.018000000000000002, 0.992, 192.0, 0.0, 0.0, 0.0, 0.0, 0.0, 0.0, 0.0, 0.0, 0.0, 1.6946808997267067E9, 0.0, 2023-09-14 10:41:39.726
73.0, -16.182662985642313, 187500.0, 187500.0, 187500.0, 187500.0, 187500.0, 187500.0, 187500.0, 0.034, -0.018000000000000002, 0.992, 192.0, 0.0, 0.0, 0.0, 0.0, 0.0, 0.0, 0.0, 0.0, 0.0, 1.69468089972672E9, 0.0, 2023-09-14 10:41:39.726
74.0, -16.160311241187006, 187500.0, 187500.0, 187500.0, 187500.0, 187500.0, 187500.0, 187500.0, 0.034, -0.018000000000000002, 0.992, 192.0, 0.0, 0.0, 0.0, 0.0, 0.0, 0.0, 0.0, 0.0, 0.0, 1.6946808997267337E9, 0.0, 2023-09-14 10:41:39.726
75.0, -21.055343276899254, 187500.0, 187500.0, 187500.0, 187500.0, 187500.0, 187500.0, 187500.0, 0.034, -0.018000000000000002, 0.992, 192.0, 0.0, 0.0, 0.0, 0.0, 0.0, 0.0, 0.0, 0.0, 0.0, 1.6946808997267475E9, 0.0, 2023-09-14 10:41:39.726
76.0, -39.093201052332056, 187500.0, 187500.0, 187500.0, 187500.0, 187500.0, 187500.0, 187500.0, 0.034, -0.018000000000000002, 0.992, 192.0, 0.0, 0.0, 0.0, 0.0, 0.0, 0.0, 0.0, 0.0, 0.0, 1.6946808997267609E9, 0.0, 2023-09-14 10:41:39.726
77.0, -43.27297726547447, 187500.0, 187500.0, 187500.0, 187500.0, 187500.0, 187500.0, 187500.0, 0.034, -0.018000000000000002, 0.992, 192.0, 0.0, 0.0, 0.0, 0.0, 0.0, 0.0, 0.0, 0.0, 0.0, 1.6946808997267747E9, 0.0, 2023-09-14 10:41:39.726
78.0, -43.74236389903592, 187500.0, 187500.0, 187500.0, 187500.0, 187500.0, 187500.0, 187500.0, 0.032, -0.014, 0.998, 192.0, 1.0, 0.0, 255.0, 144.0, 31.0, 48.0, 0.0, 0.0, 0.0, 1.694680899726797E9, 0.0, 2023-09-14 10:41:39.726
79.0, -38.646166163225914, 187500.0, 187500.0, 187500.0, 187500.0, 187500.0, 187500.0, 187500.0, 0.032, -0.014, 0.998, 192.0, 0.0, 0.0, 0.0, 0.0, 0.0, 0.0, 0.0, 0.0, 0.0, 1.6946808997268105E9, 0.0, 2023-09-14 10:41:39.726
80.0, -20.22832873205289, 187500.0, 187500.0, 187500.0, 187500.0, 187500.0, 187500.0, 187500.0, 0.032, -0.014, 0.998, 192.0, 0.0, 0.0, 0.0, 0.0, 0.0, 0.0, 0.0, 0.0, 0.0, 1.6946808997268248E9, 0.0, 2023-09-14 10:41:39.726
81.0, -15.981497285544549, 187500.0, 187500.0, 187500.0, 187500.0, 187500.0, 187500.0, 187500.0, 0.032, -0.014, 0.998, 192.0, 0.0, 0.0, 0.0, 0.0, 0.0, 0.0, 0.0, 0.0, 0.0, 1.6946808997268393E9, 0.0, 2023-09-14 10:41:39.726
82.0, -16.42853217465069, 187500.0, 187500.0, 187500.0, 187500.0, 187500.0, 187500.0, 187500.0, 0.032, -0.014, 0.998, 192.0, 0.0, 0.0, 0.0, 0.0, 0.0, 0.0, 0.0, 0.0, 0.0, 1.6946808997268534E9, 0.0, 2023-09-14 10:41:39.726
83.0, -21.122398510265175, 187500.0, 187500.0, 187500.0, 187500.0, 187500.0, 187500.0, 187500.0, 0.032, -0.014, 0.998, 192.0, 0.0, 0.0, 0.0, 0.0, 0.0, 0.0, 0.0, 0.0, 0.0, 1.6946808997268667E9, 0.0, 2023-09-14 10:41:39.726
84.0, -39.27201500797451, 187500.0, 187500.0, 187500.0, 187500.0, 187500.0, 187500.0, 187500.0, 0.032, -0.014, 0.998, 192.0, 0.0, 0.0, 0.0, 0.0, 0.0, 0.0, 0.0, 0.0, 0.0, 1.694680899726881E9, 0.0, 2023-09-14 10:41:39.726
85.0, -43.31768075438509, 187500.0, 187500.0, 187500.0, 187500.0, 187500.0, 187500.0, 187500.0, 0.032, -0.014, 0.998, 192.0, 0.0, 0.0, 0.0, 0.0, 0.0, 0.0, 0.0, 0.0, 0.0, 1.6946808997268956E9, 0.0, 2023-09-14 10:41:39.726
86.0, -43.54119819893816, 187500.0, 187500.0, 187500.0, 187500.0, 187500.0, 187500.0, 187500.0, 0.032, -0.014, 0.998, 192.0, 0.0, 0.0, 0.0, 0.0, 0.0, 0.0, 0.0, 0.0, 0.0, 1.6946808997269094E9, 0.0, 2023-09-14 10:41:39.726
87.0, -38.57911092985999, 187500.0, 187500.0, 187500.0, 187500.0, 187500.0, 187500.0, 187500.0, 0.032, -0.014, 0.998, 192.0, 0.0, 0.0, 0.0, 0.0, 0.0, 0.0, 0.0, 0.0, 0.0, 1.6946808997269237E9, 0.0, 2023-09-14 10:41:39.726
88.0, -20.653011876703726, 187500.0, 187500.0, 187500.0, 187500.0, 187500.0, 187500.0, 187500.0, 0.03, -0.014, 1.01, 192.0, 0.0, 240.0, 255.0, 144.0, 31.0, 144.0, 0.0, 0.0, 0.0, 1.6946808997269387E9, 0.0, 2023-09-14 10:41:39.726
89.0, -15.735628096536171, 187500.0, 187500.0, 187500.0, 187500.0, 187500.0, 187500.0, 187500.0, 0.03, -0.014, 1.01, 192.0, 0.0, 0.0, 0.0, 0.0, 0.0, 0.0, 0.0, 0.0, 0.0, 1.6946808997269526E9, 0.0, 2023-09-14 10:41:39.726
90.0, -15.959145541089242, 187500.0, 187500.0, 187500.0, 187500.0, 187500.0, 187500.0, 187500.0, 0.03, -0.014, 1.01, 192.0, 0.0, 0.0, 0.0, 0.0, 0.0, 0.0, 0.0, 0.0, 0.0, 1.6946808997269666E9, 0.0, 2023-09-14 10:41:39.726
91.0, -21.055343276899254, 187500.0, 187500.0, 187500.0, 187500.0, 187500.0, 187500.0, 187500.0, 0.03, -0.014, 1.01, 192.0, 0.0, 0.0, 0.0, 0.0, 0.0, 0.0, 0.0, 0.0, 0.0, 1.6946808997269807E9, 0.0, 2023-09-14 10:41:39.726
92.0, -39.67434640817004, 187500.0, 187500.0, 187500.0, 187500.0, 187500.0, 187500.0, 187500.0, 0.03, -0.014, 1.01, 192.0, 0.0, 0.0, 0.0, 0.0, 0.0, 0.0, 0.0, 0.0, 0.0, 1.694680899726994E9, 0.0, 2023-09-14 10:41:39.726
93.0, -44.09999181032084, 187500.0, 187500.0, 187500.0, 187500.0, 187500.0, 187500.0, 187500.0, 0.03, -0.014, 1.01, 192.0, 0.0, 0.0, 0.0, 0.0, 0.0, 0.0, 0.0, 0.0, 0.0, 1.6946808997270076E9, 0.0, 2023-09-14 10:41:39.727
94.0, -43.76471564349123, 187500.0, 187500.0, 187500.0, 187500.0, 187500.0, 187500.0, 187500.0, 0.03, -0.014, 1.01, 192.0, 0.0, 0.0, 0.0, 0.0, 0.0, 0.0, 0.0, 0.0, 0.0, 1.6946808997270217E9, 0.0, 2023-09-14 10:41:39.727
95.0, -38.981442330055515, 187500.0, 187500.0, 187500.0, 187500.0, 187500.0, 187500.0, 187500.0, 0.03, -0.014, 1.01, 192.0, 0.0, 0.0, 0.0, 0.0, 0.0, 0.0, 0.0, 0.0, 0.0, 1.6946808997270358E9, 0.0, 2023-09-14 10:41:39.727
96.0, -20.295383965418814, 187500.0, 187500.0, 187500.0, 187500.0, 187500.0, 187500.0, 187500.0, 0.03, -0.014, 1.01, 192.0, 0.0, 0.0, 0.0, 0.0, 0.0, 0.0, 0.0, 0.0, 0.0, 1.6946808997270496E9, 0.0, 2023-09-14 10:41:39.727
97.0, -16.026200774455162, 187500.0, 187500.0, 187500.0, 187500.0, 187500.0, 187500.0, 187500.0, 0.03, -0.014, 1.01, 192.0, 0.0, 0.0, 0.0, 0.0, 0.0, 0.0, 0.0, 0.0, 0.0, 1.694680899727064E9, 0.0, 2023-09-14 10:41:39.727
98.0, -16.160311241187006, 187500.0, 187500.0, 187500.0, 187500.0, 187500.0, 187500.0, 187500.0, 0.04, -0.014, 0.998, 192.0, 1.0, 64.0, 255.0, 144.0, 31.0, 48.0, 0.0, 0.0, 0.0, 1.694680899727078E9, 0.0, 2023-09-14 10:41:39.727
99.0, -20.876529321256797, 187500.0, 187500.0, 187500.0, 187500.0, 187500.0, 187500.0, 187500.0, 0.04, -0.014, 0.998, 192.0, 0.0, 0.0, 0.0, 0.0, 0.0, 0.0, 0.0, 0.0, 0.0, 1.694680899727092E9, 0.0, 2023-09-14 10:41:39.727
100.0, -39.38377373025104, 187500.0, 187500.0, 187500.0, 187500.0, 187500.0, 187500.0, 187500.0, 0.04, -0.014, 0.998, 192.0, 0.0, 0.0, 0.0, 0.0, 0.0, 0.0, 0.0, 0.0, 0.0, 1.6946808997271051E9, 0.0, 2023-09-14 10:41:39.727
101.0, -43.25062552101917, 187500.0, 187500.0, 187500.0, 187500.0, 187500.0, 187500.0, 187500.0, 0.04, -0.014, 0.998, 192.0, 0.0, 0.0, 0.0, 0.0, 0.0, 0.0, 0.0, 0.0, 0.0, 1.694680899727119E9, 0.0, 2023-09-14 10:41:39.727
102.0, -43.54119819893816, 187500.0, 187500.0, 187500.0, 187500.0, 187500.0, 187500.0, 187500.0, 0.04, -0.014, 0.998, 192.0, 0.0, 0.0, 0.0, 0.0, 0.0, 0.0, 0.0, 0.0, 0.0, 1.694680899727132E9, 0.0, 2023-09-14 10:41:39.727
103.0, -38.95909058560021, 187500.0, 187500.0, 187500.0, 187500.0, 187500.0, 187500.0, 187500.0, 0.04, -0.014, 0.998, 192.0, 0.0, 0.0, 0.0, 0.0, 0.0, 0.0, 0.0, 0.0, 0.0, 1.694680899727146E9, 0.0, 2023-09-14 10:41:39.727
104.0, -20.47419792106127, 187500.0, 187500.0, 187500.0, 187500.0, 187500.0, 187500.0, 187500.0, 0.04, -0.014, 0.998, 192.0, 0.0, 0.0, 0.0, 0.0, 0.0, 0.0, 0.0, 0.0, 0.0, 1.6946809002063725E9, 0.0, 2023-09-14 10:41:40.206
105.0, -15.847386818812707, 187500.0, 187500.0, 187500.0, 187500.0, 187500.0, 187500.0, 187500.0, 0.04, -0.014, 0.998, 192.0, 0.0, 0.0, 0.0, 0.0, 0.0, 0.0, 0.0, 0.0, 0.0, 1.6946809002064517E9, 0.0, 2023-09-14 10:41:40.206
106.0, -15.579165885349022, 187500.0, 187500.0, 187500.0, 187500.0, 187500.0, 187500.0, 187500.0, 0.04, -0.014, 0.998, 192.0, 0.0, 0.0, 0.0, 0.0, 0.0, 0.0, 0.0, 0.0, 0.0, 1.6946809002065072E9, 0.0, 2023-09-14 10:41:40.206
107.0, -20.92123281016741, 187500.0, 187500.0, 187500.0, 187500.0, 187500.0, 187500.0, 187500.0, 0.036000000000000004, -0.012, 1.002, 192.0, 1.0, 32.0, 255.0, 160.0, 31.0, 80.0, 0.0, 0.0, 0.0, 1.694680900206562E9, 0.0, 2023-09-14 10:41:40.206
108.0, -39.47318070807227, 187500.0, 187500.0, 187500.0, 187500.0, 187500.0, 187500.0, 187500.0, 0.036000000000000004, -0.012, 1.002, 192.0, 0.0, 0.0, 0.0, 0.0, 0.0, 0.0, 0.0, 0.0, 0.0, 1.6946809002066193E9, 0.0, 2023-09-14 10:41:40.206
109.0, -43.63060517675939, 187500.0, 187500.0, 187500.0, 187500.0, 187500.0, 187500.0, 187500.0, 0.036000000000000004, -0.012, 1.002, 192.0, 0.0, 0.0, 0.0, 0.0, 0.0, 0.0, 0.0, 0.0, 0.0, 1.6946809002066538E9, 0.0, 2023-09-14 10:41:40.206
110.0, -43.720012154580616, 187500.0, 187500.0, 187500.0, 187500.0, 187500.0, 187500.0, 187500.0, 0.036000000000000004, -0.012, 1.002, 192.0, 0.0, 0.0, 0.0, 0.0, 0.0, 0.0, 0.0, 0.0, 0.0, 1.694680900206683E9, 0.0, 2023-09-14 10:41:40.206
111.0, -38.914387096689595, 187500.0, 187500.0, 187500.0, 187500.0, 187500.0, 187500.0, 187500.0, 0.036000000000000004, -0.012, 1.002, 192.0, 0.0, 0.0, 0.0, 0.0, 0.0, 0.0, 0.0, 0.0, 0.0, 1.6946809002067022E9, 0.0, 2023-09-14 10:41:40.206
112.0, -20.362439198784735, 187500.0, 187500.0, 187500.0, 187500.0, 187500.0, 187500.0, 187500.0, 0.036000000000000004, -0.012, 1.002, 192.0, 0.0, 0.0, 0.0, 0.0, 0.0, 0.0, 0.0, 0.0, 0.0, 1.6946809002067263E9, 0.0, 2023-09-14 10:41:40.206
113.0, -15.892090307723322, 187500.0, 187500.0, 187500.0, 187500.0, 187500.0, 187500.0, 187500.0, 0.036000000000000004, -0.012, 1.002, 192.0, 0.0, 0.0, 0.0, 0.0, 0.0, 0.0, 0.0, 0.0, 0.0, 1.6946809002067497E9, 0.0, 2023-09-14 10:41:40.206
114.0, -16.026200774455162, 187500.0, 187500.0, 187500.0, 187500.0, 187500.0, 187500.0, 187500.0, 0.036000000000000004, -0.012, 1.002, 192.0, 0.0, 0.0, 0.0, 0.0, 0.0, 0.0, 0.0, 0.0, 0.0, 1.6946809002067728E9, 0.0, 2023-09-14 10:41:40.206
115.0, -20.876529321256797, 187500.0, 187500.0, 187500.0, 187500.0, 187500.0, 187500.0, 187500.0, 0.036000000000000004, -0.012, 1.002, 192.0, 0.0, 0.0, 0.0, 0.0, 0.0, 0.0, 0.0, 0.0, 0.0, 1.6946809002067947E9, 0.0, 2023-09-14 10:41:40.206
116.0, -39.47318070807227, 187500.0, 187500.0, 187500.0, 187500.0, 187500.0, 187500.0, 187500.0, 0.036000000000000004, -0.012, 1.002, 192.0, 0.0, 0.0, 0.0, 0.0, 0.0, 0.0, 0.0, 0.0, 0.0, 1.694680900206817E9, 0.0, 2023-09-14 10:41:40.206
117.0, -43.83177087685715, 187500.0, 187500.0, 187500.0, 187500.0, 187500.0, 187500.0, 187500.0, 0.036000000000000004, -0.012, 1.004, 192.0, 1.0, 32.0, 255.0, 160.0, 31.0, 96.0, 0.0, 0.0, 0.0, 1.6946809002068388E9, 0.0, 2023-09-14 10:41:40.206
118.0, -43.56354994339347, 187500.0, 187500.0, 187500.0, 187500.0, 187500.0, 187500.0, 187500.0, 0.036000000000000004, -0.012, 1.004, 192.0, 0.0, 0.0, 0.0, 0.0, 0.0, 0.0, 0.0, 0.0, 0.0, 1.6946809002068727E9, 0.0, 2023-09-14 10:41:40.206
119.0, -38.42264871867284, 187500.0, 187500.0, 187500.0, 187500.0, 187500.0, 187500.0, 187500.0, 0.036000000000000004, -0.012, 1.004, 192.0, 0.0, 0.0, 0.0, 0.0, 0.0, 0.0, 0.0, 0.0, 0.0, 1.694680900206895E9, 0.0, 2023-09-14 10:41:40.206
120.0, -20.38479094324004, 187500.0, 187500.0, 187500.0, 187500.0, 187500.0, 187500.0, 187500.0, 0.036000000000000004, -0.012, 1.004, 192.0, 0.0, 0.0, 0.0, 0.0, 0.0, 0.0, 0.0, 0.0, 0.0, 1.6946809002069185E9, 0.0, 2023-09-14 10:41:40.206
121.0, -15.914442052178629, 187500.0, 187500.0, 187500.0, 187500.0, 187500.0, 187500.0, 187500.0, 0.036000000000000004, -0.012, 1.004, 192.0, 0.0, 0.0, 0.0, 0.0, 0.0, 0.0, 0.0, 0.0, 0.0, 1.6946809002069414E9, 0.0, 2023-09-14 10:41:40.206
122.0, -15.735628096536171, 187500.0, 187500.0, 187500.0, 187500.0, 187500.0, 187500.0, 187500.0, 0.036000000000000004, -0.012, 1.004, 192.0, 0.0, 0.0, 0.0, 0.0, 0.0, 0.0, 0.0, 0.0, 0.0, 1.6946809002069626E9, 0.0, 2023-09-14 10:41:40.206
123.0, -21.010639787988637, 187500.0, 187500.0, 187500.0, 187500.0, 187500.0, 187500.0, 187500.0, 0.036000000000000004, -0.012, 1.004, 192.0, 0.0, 0.0, 0.0, 0.0, 0.0, 0.0, 0.0, 0.0, 0.0, 1.6946809002069845E9, 0.0, 2023-09-14 10:41:40.206
124.0, -39.27201500797451, 187500.0, 187500.0, 187500.0, 187500.0, 187500.0, 187500.0, 187500.0, 0.036000000000000004, -0.012, 1.004, 192.0, 0.0, 0.0, 0.0, 0.0, 0.0, 0.0, 0.0, 0.0, 0.0, 1.6946809002070076E9, 0.0, 2023-09-14 10:41:40.207
125.0, -43.29532900992978, 187500.0, 187500.0, 187500.0, 187500.0, 187500.0, 187500.0, 187500.0, 0.036000000000000004, -0.012, 1.004, 192.0, 0.0, 0.0, 0.0, 0.0, 0.0, 0.0, 0.0, 0.0, 0.0, 1.6946809002070336E9, 0.0, 2023-09-14 10:41:40.207
126.0, -43.51884645448285, 187500.0, 187500.0, 187500.0, 187500.0, 187500.0, 187500.0, 187500.0, 0.036000000000000004, -0.012, 1.004, 192.0, 0.0, 0.0, 0.0, 0.0, 0.0, 0.0, 0.0, 0.0, 0.0, 1.6946809002070577E9, 0.0, 2023-09-14 10:41:40.207
127.0, -38.73557314104714, 187500.0, 187500.0, 187500.0, 187500.0, 187500.0, 187500.0, 187500.0, 0.032, -0.01, 1.002, 192.0, 1.0, 0.0, 255.0, 176.0, 31.0, 80.0, 0.0, 0.0, 0.0, 1.6946809002070737E9, 0.0, 2023-09-14 10:41:40.207
128.0, -20.250680476508197, 187500.0, 187500.0, 187500.0, 187500.0, 187500.0, 187500.0, 187500.0, 0.032, -0.01, 1.002, 192.0, 0.0, 0.0, 0.0, 0.0, 0.0, 0.0, 0.0, 0.0, 0.0, 1.6946809002070887E9, 0.0, 2023-09-14 10:41:40.207
129.0, -15.623869374259638, 187500.0, 187500.0, 187500.0, 187500.0, 187500.0, 187500.0, 187500.0, 0.032, -0.01, 1.002, 192.0, 0.0, 0.0, 0.0, 0.0, 0.0, 0.0, 0.0, 0.0, 0.0, 1.6946809002071023E9, 0.0, 2023-09-14 10:41:40.207
130.0, -15.534462396438409, 187500.0, 187500.0, 187500.0, 187500.0, 187500.0, 187500.0, 187500.0, 0.032, -0.01, 1.002, 192.0, 0.0, 0.0, 0.0, 0.0, 0.0, 0.0, 0.0, 0.0, 0.0, 1.694680900207116E9, 0.0, 2023-09-14 10:41:40.207
131.0, -20.720067110069646, 187500.0, 187500.0, 187500.0, 187500.0, 187500.0, 187500.0, 187500.0, 0.032, -0.01, 1.002, 192.0, 0.0, 0.0, 0.0, 0.0, 0.0, 0.0, 0.0, 0.0, 0.0, 1.6946809002071292E9, 0.0, 2023-09-14 10:41:40.207
132.0, -39.02614581896613, 187500.0, 187500.0, 187500.0, 187500.0, 187500.0, 187500.0, 187500.0, 0.032, -0.01, 1.002, 192.0, 0.0, 0.0, 0.0, 0.0, 0.0, 0.0, 0.0, 0.0, 0.0, 1.6946809002071424E9, 0.0, 2023-09-14 10:41:40.207
133.0, -43.31768075438509, 187500.0, 187500.0, 187500.0, 187500.0, 187500.0, 187500.0, 187500.0, 0.032, -0.01, 1.002, 192.0, 0.0, 0.0, 0.0, 0.0, 0.0, 0.0, 0.0, 0.0, 0.0, 1.694680900207157E9, 0.0, 2023-09-14 10:41:40.207
134.0, -43.54119819893816, 187500.0, 187500.0, 187500.0, 187500.0, 187500.0, 187500.0, 187500.0, 0.032, -0.01, 1.002, 192.0, 0.0, 0.0, 0.0, 0.0, 0.0, 0.0, 0.0, 0.0, 0.0, 1.6946809002071724E9, 0.0, 2023-09-14 10:41:40.207
135.0, -38.80262837441306, 187500.0, 187500.0, 187500.0, 187500.0, 187500.0, 187500.0, 187500.0, 0.032, -0.01, 1.002, 192.0, 0.0, 0.0, 0.0, 0.0, 0.0, 0.0, 0.0, 0.0, 0.0, 1.6946809002071865E9, 0.0, 2023-09-14 10:41:40.207
136.0, -20.38479094324004, 187500.0, 187500.0, 187500.0, 187500.0, 187500.0, 187500.0, 187500.0, 0.032, -0.01, 1.002, 192.0, 0.0, 0.0, 0.0, 0.0, 0.0, 0.0, 0.0, 0.0, 0.0, 1.6946809002072008E9, 0.0, 2023-09-14 10:41:40.207
137.0, -15.892090307723322, 187500.0, 187500.0, 187500.0, 187500.0, 187500.0, 187500.0, 187500.0, 0.034, -0.014, 1.004, 192.0, 1.0, 16.0, 255.0, 144.0, 31.0, 96.0, 0.0, 0.0, 0.0, 1.6946809002072167E9, 0.0, 2023-09-14 10:41:40.207
138.0, -15.847386818812707, 187500.0, 187500.0, 187500.0, 187500.0, 187500.0, 187500.0, 187500.0, 0.034, -0.014, 1.004, 192.0, 0.0, 0.0, 0.0, 0.0, 0.0, 0.0, 0.0, 0.0, 0.0, 1.6946809002072306E9, 0.0, 2023-09-14 10:41:40.207
139.0, -20.585956643337806, 187500.0, 187500.0, 187500.0, 187500.0, 187500.0, 187500.0, 187500.0, 0.034, -0.014, 1.004, 192.0, 0.0, 0.0, 0.0, 0.0, 0.0, 0.0, 0.0, 0.0, 0.0, 1.694680900207244E9, 0.0, 2023-09-14 10:41:40.207
140.0, -39.33907024134043, 187500.0, 187500.0, 187500.0, 187500.0, 187500.0, 187500.0, 187500.0, 0.034, -0.014, 1.004, 192.0, 0.0, 0.0, 0.0, 0.0, 0.0, 0.0, 0.0, 0.0, 0.0, 1.69468090020726E9, 0.0, 2023-09-14 10:41:40.207
141.0, -43.29532900992978, 187500.0, 187500.0, 187500.0, 187500.0, 187500.0, 187500.0, 187500.0, 0.034, -0.014, 1.004, 192.0, 0.0, 0.0, 0.0, 0.0, 0.0, 0.0, 0.0, 0.0, 0.0, 1.6946809002072735E9, 0.0, 2023-09-14 10:41:40.207
142.0, -43.29532900992978, 187500.0, 187500.0, 187500.0, 187500.0, 187500.0, 187500.0, 187500.0, 0.034, -0.014, 1.004, 192.0, 0.0, 0.0, 0.0, 0.0, 0.0, 0.0, 0.0, 0.0, 0.0, 1.6946809002072875E9, 0.0, 2023-09-14 10:41:40.207
143.0, -38.55675918540468, 187500.0, 187500.0, 187500.0, 187500.0, 187500.0, 187500.0, 187500.0, 0.034, -0.014, 1.004, 192.0, 0.0, 0.0, 0.0, 0.0, 0.0, 0.0, 0.0, 0.0, 0.0, 1.694680900207301E9, 0.0, 2023-09-14 10:41:40.207
144.0, -20.541253154427192, 187500.0, 187500.0, 187500.0, 187500.0, 187500.0, 187500.0, 187500.0, 0.034, -0.014, 1.004, 192.0, 0.0, 0.0, 0.0, 0.0, 0.0, 0.0, 0.0, 0.0, 0.0, 1.6946809002073143E9, 0.0, 2023-09-14 10:41:40.207
145.0, -16.249718219008233, 187500.0, 187500.0, 187500.0, 187500.0, 187500.0, 187500.0, 187500.0, 0.034, -0.014, 1.004, 192.0, 0.0, 0.0, 0.0, 0.0, 0.0, 0.0, 0.0, 0.0, 0.0, 1.6946809002073286E9, 0.0, 2023-09-14 10:41:40.207
146.0, -16.160311241187006, 187500.0, 187500.0, 187500.0, 187500.0, 187500.0, 187500.0, 187500.0, 0.034, -0.014, 1.004, 192.0, 0.0, 0.0, 0.0, 0.0, 0.0, 0.0, 0.0, 0.0, 0.0, 1.6946809002073424E9, 0.0, 2023-09-14 10:41:40.207
147.0, -20.496549665516575, 187500.0, 187500.0, 187500.0, 187500.0, 187500.0, 187500.0, 187500.0, 0.036000000000000004, -0.012, 0.998, 192.0, 1.0, 32.0, 255.0, 160.0, 31.0, 48.0, 0.0, 0.0, 0.0, 1.6946809002073576E9, 0.0, 2023-09-14 10:41:40.207
148.0, -39.048497563421435, 187500.0, 187500.0, 187500.0, 187500.0, 187500.0, 187500.0, 187500.0, 0.036000000000000004, -0.012, 0.998, 192.0, 0.0, 0.0, 0.0, 0.0, 0.0, 0.0, 0.0, 0.0, 0.0, 1.6946809002073717E9, 0.0, 2023-09-14 10:41:40.207
149.0, -43.49649471002754, 187500.0, 187500.0, 187500.0, 187500.0, 187500.0, 187500.0, 187500.0, 0.036000000000000004, -0.012, 0.998, 192.0, 0.0, 0.0, 0.0, 0.0, 0.0, 0.0, 0.0, 0.0, 0.0, 1.694680900207385E9, 0.0, 2023-09-14 10:41:40.207
150.0, -43.56354994339347, 187500.0, 187500.0, 187500.0, 187500.0, 187500.0, 187500.0, 187500.0, 0.036000000000000004, -0.012, 0.998, 192.0, 0.0, 0.0, 0.0, 0.0, 0.0, 0.0, 0.0, 0.0, 0.0, 1.6946809002073991E9, 0.0, 2023-09-14 10:41:40.207
151.0, -38.80262837441306, 187500.0, 187500.0, 187500.0, 187500.0, 187500.0, 187500.0, 187500.0, 0.036000000000000004, -0.012, 0.998, 192.0, 0.0, 0.0, 0.0, 0.0, 0.0, 0.0, 0.0, 0.0, 0.0, 1.6946809002074132E9, 0.0, 2023-09-14 10:41:40.207
152.0, -20.250680476508197, 187500.0, 187500.0, 187500.0, 187500.0, 187500.0, 187500.0, 187500.0, 0.036000000000000004, -0.012, 0.998, 192.0, 0.0, 0.0, 0.0, 0.0, 0.0, 0.0, 0.0, 0.0, 0.0, 1.6946809002074273E9, 0.0, 2023-09-14 10:41:40.207
153.0, -15.847386818812707, 187500.0, 187500.0, 187500.0, 187500.0, 187500.0, 187500.0, 187500.0, 0.036000000000000004, -0.012, 0.998, 192.0, 0.0, 0.0, 0.0, 0.0, 0.0, 0.0, 0.0, 0.0, 0.0, 1.6946809002074409E9, 0.0, 2023-09-14 10:41:40.207
154.0, -15.936793796633935, 187500.0, 187500.0, 187500.0, 187500.0, 187500.0, 187500.0, 187500.0, 0.036000000000000004, -0.012, 0.998, 192.0, 0.0, 0.0, 0.0, 0.0, 0.0, 0.0, 0.0, 0.0, 0.0, 1.6946809002074575E9, 0.0, 2023-09-14 10:41:40.207
155.0, -20.831825832346183, 187500.0, 187500.0, 187500.0, 187500.0, 187500.0, 187500.0, 187500.0, 0.036000000000000004, -0.012, 0.998, 192.0, 0.0, 0.0, 0.0, 0.0, 0.0, 0.0, 0.0, 0.0, 0.0, 1.6946809002074726E9, 0.0, 2023-09-14 10:41:40.207
156.0, -39.13790454124267, 187500.0, 187500.0, 187500.0, 187500.0, 187500.0, 187500.0, 187500.0, 0.036000000000000004, -0.012, 0.998, 192.0, 0.0, 0.0, 0.0, 0.0, 0.0, 0.0, 0.0, 0.0, 0.0, 1.6946809002074864E9, 0.0, 2023-09-14 10:41:40.207
157.0, -43.38473598775101, 187500.0, 187500.0, 187500.0, 187500.0, 187500.0, 187500.0, 187500.0, 0.028, -0.012, 1.004, 192.0, 0.0, 224.0, 255.0, 160.0, 31.0, 96.0, 0.0, 0.0, 0.0, 1.6946809002075005E9, 0.0, 2023-09-14 10:41:40.207
158.0, -43.49649471002754, 187500.0, 187500.0, 187500.0, 187500.0, 187500.0, 187500.0, 187500.0, 0.028, -0.012, 1.004, 192.0, 0.0, 0.0, 0.0, 0.0, 0.0, 0.0, 0.0, 0.0, 0.0, 1.694680900207514E9, 0.0, 2023-09-14 10:41:40.207
159.0, -38.914387096689595, 187500.0, 187500.0, 187500.0, 187500.0, 187500.0, 187500.0, 187500.0, 0.028, -0.012, 1.004, 192.0, 0.0, 0.0, 0.0, 0.0, 0.0, 0.0, 0.0, 0.0, 0.0, 1.6946809002075279E9, 0.0, 2023-09-14 10:41:40.207
160.0, -20.340087454329428, 187500.0, 187500.0, 187500.0, 187500.0, 187500.0, 187500.0, 187500.0, 0.028, -0.012, 1.004, 192.0, 0.0, 0.0, 0.0, 0.0, 0.0, 0.0, 0.0, 0.0, 0.0, 1.6946809002075446E9, 0.0, 2023-09-14 10:41:40.207
161.0, -15.802683329902093, 187500.0, 187500.0, 187500.0, 187500.0, 187500.0, 187500.0, 187500.0, 0.028, -0.012, 1.004, 192.0, 0.0, 0.0, 0.0, 0.0, 0.0, 0.0, 0.0, 0.0, 0.0, 1.69468090020756E9, 0.0, 2023-09-14 10:41:40.207
162.0, -15.735628096536171, 187500.0, 187500.0, 187500.0, 187500.0, 187500.0, 187500.0, 187500.0, 0.028, -0.012, 1.004, 192.0, 0.0, 0.0, 0.0, 0.0, 0.0, 0.0, 0.0, 0.0, 0.0, 1.6946809002075746E9, 0.0, 2023-09-14 10:41:40.207
163.0, -20.92123281016741, 187500.0, 187500.0, 187500.0, 187500.0, 187500.0, 187500.0, 187500.0, 0.028, -0.012, 1.004, 192.0, 0.0, 0.0, 0.0, 0.0, 0.0, 0.0, 0.0, 0.0, 0.0, 1.6946809002075891E9, 0.0, 2023-09-14 10:41:40.207
164.0, -39.227311519063896, 187500.0, 187500.0, 187500.0, 187500.0, 187500.0, 187500.0, 187500.0, 0.028, -0.012, 1.004, 192.0, 0.0, 0.0, 0.0, 0.0, 0.0, 0.0, 0.0, 0.0, 0.0, 1.694680900207605E9, 0.0, 2023-09-14 10:41:40.207
165.0, -43.45179122111693, 187500.0, 187500.0, 187500.0, 187500.0, 187500.0, 187500.0, 187500.0, 0.028, -0.012, 1.004, 192.0, 0.0, 0.0, 0.0, 0.0, 0.0, 0.0, 0.0, 0.0, 0.0, 1.6946809002076206E9, 0.0, 2023-09-14 10:41:40.207
166.0, -43.56354994339347, 187500.0, 187500.0, 187500.0, 187500.0, 187500.0, 187500.0, 187500.0, 0.028, -0.012, 1.004, 192.0, 0.0, 0.0, 0.0, 0.0, 0.0, 0.0, 0.0, 0.0, 0.0, 1.6946809002076344E9, 0.0, 2023-09-14 10:41:40.207
167.0, -38.66851790768122, 187500.0, 187500.0, 187500.0, 187500.0, 187500.0, 187500.0, 187500.0, 0.034, -0.012, 1.01, 192.0, 1.0, 16.0, 255.0, 160.0, 31.0, 144.0, 0.0, 0.0, 0.0, 1.694680900207651E9, 0.0, 2023-09-14 10:41:40.207
168.0, -20.541253154427192, 187500.0, 187500.0, 187500.0, 187500.0, 187500.0, 187500.0, 187500.0, 0.034, -0.012, 1.01, 192.0, 0.0, 0.0, 0.0, 0.0, 0.0, 0.0, 0.0, 0.0, 0.0, 1.6946809002076645E9, 0.0, 2023-09-14 10:41:40.207
169.0, -16.227366474552927, 187500.0, 187500.0, 187500.0, 187500.0, 187500.0, 187500.0, 187500.0, 0.034, -0.012, 1.01, 192.0, 0.0, 0.0, 0.0, 0.0, 0.0, 0.0, 0.0, 0.0, 0.0, 1.694680900207686E9, 0.0, 2023-09-14 10:41:40.207
170.0, -16.048552518910473, 187500.0, 187500.0, 187500.0, 187500.0, 187500.0, 187500.0, 187500.0, 0.034, -0.012, 1.01, 192.0, 0.0, 0.0, 0.0, 0.0, 0.0, 0.0, 0.0, 0.0, 0.0, 1.6946809002077098E9, 0.0, 2023-09-14 10:41:40.207
171.0, -20.653011876703726, 187500.0, 187500.0, 187500.0, 187500.0, 187500.0, 187500.0, 187500.0, 0.034, -0.012, 1.01, 192.0, 0.0, 0.0, 0.0, 0.0, 0.0, 0.0, 0.0, 0.0, 0.0, 1.6946809002077353E9, 0.0, 2023-09-14 10:41:40.207
172.0, -39.294366752429816, 187500.0, 187500.0, 187500.0, 187500.0, 187500.0, 187500.0, 187500.0, 0.034, -0.012, 1.01, 192.0, 0.0, 0.0, 0.0, 0.0, 0.0, 0.0, 0.0, 0.0, 0.0, 1.6946809002077549E9, 0.0, 2023-09-14 10:41:40.207
173.0, -43.69766041012531, 187500.0, 187500.0, 187500.0, 187500.0, 187500.0, 187500.0, 187500.0, 0.034, -0.012, 1.01, 192.0, 0.0, 0.0, 0.0, 0.0, 0.0, 0.0, 0.0, 0.0, 0.0, 1.6946809002077703E9, 0.0, 2023-09-14 10:41:40.207
174.0, -43.56354994339347, 187500.0, 187500.0, 187500.0, 187500.0, 187500.0, 187500.0, 187500.0, 0.034, -0.012, 1.01, 192.0, 0.0, 0.0, 0.0, 0.0, 0.0, 0.0, 0.0, 0.0, 0.0, 1.694680900207785E9, 0.0, 2023-09-14 10:41:40.207
175.0, -38.73557314104714, 187500.0, 187500.0, 187500.0, 187500.0, 187500.0, 187500.0, 187500.0, 0.034, -0.012, 1.01, 192.0, 0.0, 0.0, 0.0, 0.0, 0.0, 0.0, 0.0, 0.0, 0.0, 1.6946809002077992E9, 0.0, 2023-09-14 10:41:40.207
176.0, -20.250680476508197, 187500.0, 187500.0, 187500.0, 187500.0, 187500.0, 187500.0, 187500.0, 0.034, -0.012, 1.01, 192.0, 0.0, 0.0, 0.0, 0.0, 0.0, 0.0, 0.0, 0.0, 0.0, 1.6946809002078133E9, 0.0, 2023-09-14 10:41:40.207
177.0, -15.8250350743574, 187500.0, 187500.0, 187500.0, 187500.0, 187500.0, 187500.0, 187500.0, 0.034, -0.004, 1.004, 192.0, 1.0, 16.0, 255.0, 224.0, 31.0, 96.0, 0.0, 0.0, 0.0, 1.6946809002078269E9, 0.0, 2023-09-14 10:41:40.207
178.0, -15.847386818812707, 187500.0, 187500.0, 187500.0, 187500.0, 187500.0, 187500.0, 187500.0, 0.034, -0.004, 1.004, 192.0, 0.0, 0.0, 0.0, 0.0, 0.0, 0.0, 0.0, 0.0, 0.0, 1.694680900207842E9, 0.0, 2023-09-14 10:41:40.207
179.0, -20.831825832346183, 187500.0, 187500.0, 187500.0, 187500.0, 187500.0, 187500.0, 187500.0, 0.034, -0.004, 1.004, 192.0, 0.0, 0.0, 0.0, 0.0, 0.0, 0.0, 0.0, 0.0, 0.0, 1.6946809002078567E9, 0.0, 2023-09-14 10:41:40.207
180.0, -39.160256285697976, 187500.0, 187500.0, 187500.0, 187500.0, 187500.0, 187500.0, 187500.0, 0.034, -0.004, 1.004, 192.0, 0.0, 0.0, 0.0, 0.0, 0.0, 0.0, 0.0, 0.0, 0.0, 1.6946809002078705E9, 0.0, 2023-09-14 10:41:40.207
181.0, -43.340032498840394, 187500.0, 187500.0, 187500.0, 187500.0, 187500.0, 187500.0, 187500.0, 0.034, -0.004, 1.004, 192.0, 0.0, 0.0, 0.0, 0.0, 0.0, 0.0, 0.0, 0.0, 0.0, 1.6946809002078843E9, 0.0, 2023-09-14 10:41:40.207
182.0, -43.22827377656386, 187500.0, 187500.0, 187500.0, 187500.0, 187500.0, 187500.0, 187500.0, 0.034, -0.004, 1.004, 192.0, 0.0, 0.0, 0.0, 0.0, 0.0, 0.0, 0.0, 0.0, 0.0, 1.6946809002078993E9, 0.0, 2023-09-14 10:41:40.207
183.0, -38.914387096689595, 187500.0, 187500.0, 187500.0, 187500.0, 187500.0, 187500.0, 187500.0, 0.034, -0.004, 1.004, 192.0, 0.0, 0.0, 0.0, 0.0, 0.0, 0.0, 0.0, 0.0, 0.0, 1.694680900207914E9, 0.0, 2023-09-14 10:41:40.207
184.0, -20.38479094324004, 187500.0, 187500.0, 187500.0, 187500.0, 187500.0, 187500.0, 187500.0, 0.034, -0.004, 1.004, 192.0, 0.0, 0.0, 0.0, 0.0, 0.0, 0.0, 0.0, 0.0, 0.0, 1.6946809002079282E9, 0.0, 2023-09-14 10:41:40.207
185.0, -16.160311241187006, 187500.0, 187500.0, 187500.0, 187500.0, 187500.0, 187500.0, 187500.0, 0.034, -0.004, 1.004, 192.0, 0.0, 0.0, 0.0, 0.0, 0.0, 0.0, 0.0, 0.0, 0.0, 1.694680900207942E9, 0.0, 2023-09-14 10:41:40.207
186.0, -16.115607752276393, 187500.0, 187500.0, 187500.0, 187500.0, 187500.0, 187500.0, 187500.0, 0.034, -0.004, 1.004, 192.0, 0.0, 0.0, 0.0, 0.0, 0.0, 0.0, 0.0, 0.0, 0.0, 1.6946809002079563E9, 0.0, 2023-09-14 10:41:40.207
187.0, -20.653011876703726, 187500.0, 187500.0, 187500.0, 187500.0, 187500.0, 187500.0, 187500.0, 0.038, -0.01, 1.006, 192.0, 1.0, 48.0, 255.0, 176.0, 31.0, 112.0, 0.0, 0.0, 0.0, 1.69468090020797E9, 0.0, 2023-09-14 10:41:40.207
188.0, -39.093201052332056, 187500.0, 187500.0, 187500.0, 187500.0, 187500.0, 187500.0, 187500.0, 0.038, -0.01, 1.006, 192.0, 0.0, 0.0, 0.0, 0.0, 0.0, 0.0, 0.0, 0.0, 0.0, 1.6946809002079852E9, 0.0, 2023-09-14 10:41:40.207
189.0, -43.38473598775101, 187500.0, 187500.0, 187500.0, 187500.0, 187500.0, 187500.0, 187500.0, 0.038, -0.01, 1.006, 192.0, 0.0, 0.0, 0.0, 0.0, 0.0, 0.0, 0.0, 0.0, 0.0, 1.6946809002079985E9, 0.0, 2023-09-14 10:41:40.207
190.0, -43.42943947666162, 187500.0, 187500.0, 187500.0, 187500.0, 187500.0, 187500.0, 187500.0, 0.038, -0.01, 1.006, 192.0, 0.0, 0.0, 0.0, 0.0, 0.0, 0.0, 0.0, 0.0, 0.0, 1.6946809002080135E9, 0.0, 2023-09-14 10:41:40.208
191.0, -38.310889996396305, 187500.0, 187500.0, 187500.0, 187500.0, 187500.0, 187500.0, 187500.0, 0.038, -0.01, 1.006, 192.0, 0.0, 0.0, 0.0, 0.0, 0.0, 0.0, 0.0, 0.0, 0.0, 1.6946809002080283E9, 0.0, 2023-09-14 10:41:40.208
192.0, -20.250680476508197, 187500.0, 187500.0, 187500.0, 187500.0, 187500.0, 187500.0, 187500.0, 0.038, -0.01, 1.006, 192.0, 0.0, 0.0, 0.0, 0.0, 0.0, 0.0, 0.0, 0.0, 0.0, 1.6946809002080421E9, 0.0, 2023-09-14 10:41:40.208
193.0, -16.048552518910473, 187500.0, 187500.0, 187500.0, 187500.0, 187500.0, 187500.0, 187500.0, 0.038, -0.01, 1.006, 192.0, 0.0, 0.0, 0.0, 0.0, 0.0, 0.0, 0.0, 0.0, 0.0, 1.6946809002080567E9, 0.0, 2023-09-14 10:41:40.208
194.0, -15.735628096536171, 187500.0, 187500.0, 187500.0, 187500.0, 187500.0, 187500.0, 187500.0, 0.038, -0.01, 1.006, 192.0, 0.0, 0.0, 0.0, 0.0, 0.0, 0.0, 0.0, 0.0, 0.0, 1.6946809002080717E9, 0.0, 2023-09-14 10:41:40.208
195.0, -20.608308387793112, 187500.0, 187500.0, 187500.0, 187500.0, 187500.0, 187500.0, 187500.0, 0.038, -0.01, 1.006, 192.0, 0.0, 0.0, 0.0, 0.0, 0.0, 0.0, 0.0, 0.0, 0.0, 1.6946809002080865E9, 0.0, 2023-09-14 10:41:40.208
196.0, -38.9367388411449, 187500.0, 187500.0, 187500.0, 187500.0, 187500.0, 187500.0, 187500.0, 0.038, -0.01, 1.006, 192.0, 0.0, 0.0, 0.0, 0.0, 0.0, 0.0, 0.0, 0.0, 0.0, 1.694680900208102E9, 0.0, 2023-09-14 10:41:40.208
197.0, -43.38473598775101, 187500.0, 187500.0, 187500.0, 187500.0, 187500.0, 187500.0, 187500.0, 0.03, -0.012, 0.998, 192.0, 0.0, 240.0, 255.0, 160.0, 31.0, 48.0, 0.0, 0.0, 0.0, 1.6946809002081158E9, 0.0, 2023-09-14 10:41:40.208
198.0, -43.38473598775101, 187500.0, 187500.0, 187500.0, 187500.0, 187500.0, 187500.0, 187500.0, 0.03, -0.012, 0.998, 192.0, 0.0, 0.0, 0.0, 0.0, 0.0, 0.0, 0.0, 0.0, 0.0, 1.6946809002081301E9, 0.0, 2023-09-14 10:41:40.208
199.0, -38.6014626743153, 187500.0, 187500.0, 187500.0, 187500.0, 187500.0, 187500.0, 187500.0, 0.03, -0.012, 0.998, 192.0, 0.0, 0.0, 0.0, 0.0, 0.0, 0.0, 0.0, 0.0, 0.0, 1.6946809002081447E9, 0.0, 2023-09-14 10:41:40.208
200.0, -20.31773570987412, 187500.0, 187500.0, 187500.0, 187500.0, 187500.0, 187500.0, 187500.0, 0.03, -0.012, 0.998, 192.0, 0.0, 0.0, 0.0, 0.0, 0.0, 0.0, 0.0, 0.0, 0.0, 1.6946809002081587E9, 0.0, 2023-09-14 10:41:40.208
201.0, -15.892090307723322, 187500.0, 187500.0, 187500.0, 187500.0, 187500.0, 187500.0, 187500.0, 0.03, -0.012, 0.998, 192.0, 0.0, 0.0, 0.0, 0.0, 0.0, 0.0, 0.0, 0.0, 0.0, 1.6946809002081723E9, 0.0, 2023-09-14 10:41:40.208
202.0, -15.914442052178629, 187500.0, 187500.0, 187500.0, 187500.0, 187500.0, 187500.0, 187500.0, 0.03, -0.012, 0.998, 192.0, 0.0, 0.0, 0.0, 0.0, 0.0, 0.0, 0.0, 0.0, 0.0, 1.6946809002081864E9, 0.0, 2023-09-14 10:41:40.208
203.0, -20.92123281016741, 187500.0, 187500.0, 187500.0, 187500.0, 187500.0, 187500.0, 187500.0, 0.03, -0.012, 0.998, 192.0, 0.0, 0.0, 0.0, 0.0, 0.0, 0.0, 0.0, 0.0, 0.0, 1.6946809002082007E9, 0.0, 2023-09-14 10:41:40.208
204.0, -39.13790454124267, 187500.0, 187500.0, 187500.0, 187500.0, 187500.0, 187500.0, 187500.0, 0.03, -0.012, 0.998, 192.0, 0.0, 0.0, 0.0, 0.0, 0.0, 0.0, 0.0, 0.0, 0.0, 1.694680900208217E9, 0.0, 2023-09-14 10:41:40.208
205.0, -43.3623842432957, 187500.0, 187500.0, 187500.0, 187500.0, 187500.0, 187500.0, 187500.0, 0.03, -0.012, 0.998, 192.0, 0.0, 0.0, 0.0, 0.0, 0.0, 0.0, 0.0, 0.0, 0.0, 1.6946809002082324E9, 0.0, 2023-09-14 10:41:40.208
206.0, -43.340032498840394, 187500.0, 187500.0, 187500.0, 187500.0, 187500.0, 187500.0, 187500.0, 0.03, -0.012, 0.998, 192.0, 0.0, 0.0, 0.0, 0.0, 0.0, 0.0, 0.0, 0.0, 0.0, 1.6946809002082477E9, 0.0, 2023-09-14 10:41:40.208
207.0, -38.713221396591834, 187500.0, 187500.0, 187500.0, 187500.0, 187500.0, 187500.0, 187500.0, 0.03, -0.018000000000000002, 1.002, 192.0, 0.0, 240.0, 255.0, 112.0, 31.0, 80.0, 0.0, 0.0, 0.0, 1.6946809002082624E9, 0.0, 2023-09-14 10:41:40.208
208.0, -20.5636048988825, 187500.0, 187500.0, 187500.0, 187500.0, 187500.0, 187500.0, 187500.0, 0.03, -0.018000000000000002, 1.002, 192.0, 0.0, 0.0, 0.0, 0.0, 0.0, 0.0, 0.0, 0.0, 0.0, 1.6946809002082767E9, 0.0, 2023-09-14 10:41:40.208
209.0, -16.1379594967317, 187500.0, 187500.0, 187500.0, 187500.0, 187500.0, 187500.0, 187500.0, 0.03, -0.018000000000000002, 1.002, 192.0, 0.0, 0.0, 0.0, 0.0, 0.0, 0.0, 0.0, 0.0, 0.0, 1.694680900208292E9, 0.0, 2023-09-14 10:41:40.208
210.0, -15.735628096536171, 187500.0, 187500.0, 187500.0, 187500.0, 187500.0, 187500.0, 187500.0, 0.03, -0.018000000000000002, 1.002, 192.0, 0.0, 0.0, 0.0, 0.0, 0.0, 0.0, 0.0, 0.0, 0.0, 1.6946809002083063E9, 0.0, 2023-09-14 10:41:40.208
211.0, -20.720067110069646, 187500.0, 187500.0, 187500.0, 187500.0, 187500.0, 187500.0, 187500.0, 0.03, -0.018000000000000002, 1.002, 192.0, 0.0, 0.0, 0.0, 0.0, 0.0, 0.0, 0.0, 0.0, 0.0, 1.6946809002083206E9, 0.0, 2023-09-14 10:41:40.208
212.0, -39.42847721916166, 187500.0, 187500.0, 187500.0, 187500.0, 187500.0, 187500.0, 187500.0, 0.03, -0.018000000000000002, 1.002, 192.0, 0.0, 0.0, 0.0, 0.0, 0.0, 0.0, 0.0, 0.0, 0.0, 1.6946809002083347E9, 0.0, 2023-09-14 10:41:40.208
213.0, -43.89882611022307, 187500.0, 187500.0, 187500.0, 187500.0, 187500.0, 187500.0, 187500.0, 0.03, -0.018000000000000002, 1.002, 192.0, 0.0, 0.0, 0.0, 0.0, 0.0, 0.0, 0.0, 0.0, 0.0, 1.694680900208351E9, 0.0, 2023-09-14 10:41:40.208
214.0, -44.055288321410224, 187500.0, 187500.0, 187500.0, 187500.0, 187500.0, 187500.0, 187500.0, 0.03, -0.018000000000000002, 1.002, 192.0, 0.0, 0.0, 0.0, 0.0, 0.0, 0.0, 0.0, 0.0, 0.0, 1.6946809002083662E9, 0.0, 2023-09-14 10:41:40.208
215.0, -38.646166163225914, 187500.0, 187500.0, 187500.0, 187500.0, 187500.0, 187500.0, 187500.0, 0.03, -0.018000000000000002, 1.002, 192.0, 0.0, 0.0, 0.0, 0.0, 0.0, 0.0, 0.0, 0.0, 0.0, 1.6946809002083812E9, 0.0, 2023-09-14 10:41:40.208
216.0, -20.205976987597584, 187500.0, 187500.0, 187500.0, 187500.0, 187500.0, 187500.0, 187500.0, 0.018000000000000002, -0.016, 0.996, 192.0, 0.0, 144.0, 255.0, 128.0, 31.0, 32.0, 0.0, 0.0, 0.0, 1.694680900208397E9, 0.0, 2023-09-14 10:41:40.208
217.0, -15.556814140893716, 187500.0, 187500.0, 187500.0, 187500.0, 187500.0, 187500.0, 187500.0, 0.018000000000000002, -0.016, 0.996, 192.0, 0.0, 0.0, 0.0, 0.0, 0.0, 0.0, 0.0, 0.0, 0.0, 1.6946809002084136E9, 0.0, 2023-09-14 10:41:40.208
218.0, -15.959145541089242, 187500.0, 187500.0, 187500.0, 187500.0, 187500.0, 187500.0, 187500.0, 0.018000000000000002, -0.016, 0.996, 192.0, 0.0, 0.0, 0.0, 0.0, 0.0, 0.0, 0.0, 0.0, 0.0, 1.6946809002084289E9, 0.0, 2023-09-14 10:41:40.208
219.0, -21.032991532443948, 187500.0, 187500.0, 187500.0, 187500.0, 187500.0, 187500.0, 187500.0, 0.018000000000000002, -0.016, 0.996, 192.0, 0.0, 0.0, 0.0, 0.0, 0.0, 0.0, 0.0, 0.0, 0.0, 1.6946809002084448E9, 0.0, 2023-09-14 10:41:40.208
220.0, -39.47318070807227, 187500.0, 187500.0, 187500.0, 187500.0, 187500.0, 187500.0, 187500.0, 0.018000000000000002, -0.016, 0.996, 192.0, 0.0, 0.0, 0.0, 0.0, 0.0, 0.0, 0.0, 0.0, 0.0, 1.6946809002084649E9, 0.0, 2023-09-14 10:41:40.208
221.0, -43.54119819893816, 187500.0, 187500.0, 187500.0, 187500.0, 187500.0, 187500.0, 187500.0, 0.018000000000000002, -0.016, 0.996, 192.0, 0.0, 0.0, 0.0, 0.0, 0.0, 0.0, 0.0, 0.0, 0.0, 1.6946809002084832E9, 0.0, 2023-09-14 10:41:40.208
222.0, -43.38473598775101, 187500.0, 187500.0, 187500.0, 187500.0, 187500.0, 187500.0, 187500.0, 0.018000000000000002, -0.016, 0.996, 192.0, 0.0, 0.0, 0.0, 0.0, 0.0, 0.0, 0.0, 0.0, 0.0, 1.6946809002085118E9, 0.0, 2023-09-14 10:41:40.208
223.0, -38.55675918540468, 187500.0, 187500.0, 187500.0, 187500.0, 187500.0, 187500.0, 187500.0, 0.018000000000000002, -0.016, 0.996, 192.0, 0.0, 0.0, 0.0, 0.0, 0.0, 0.0, 0.0, 0.0, 0.0, 1.6946809002085404E9, 0.0, 2023-09-14 10:41:40.208
224.0, -20.38479094324004, 187500.0, 187500.0, 187500.0, 187500.0, 187500.0, 187500.0, 187500.0, 0.018000000000000002, -0.016, 0.996, 192.0, 0.0, 0.0, 0.0, 0.0, 0.0, 0.0, 0.0, 0.0, 0.0, 1.694680900686615E9, 0.0, 2023-09-14 10:41:40.686
225.0, -15.8250350743574, 187500.0, 187500.0, 187500.0, 187500.0, 187500.0, 187500.0, 187500.0, 0.018000000000000002, -0.016, 0.996, 192.0, 0.0, 0.0, 0.0, 0.0, 0.0, 0.0, 0.0, 0.0, 0.0, 1.694680900686686E9, 0.0, 2023-09-14 10:41:40.686
226.0, -15.713276352080864, 187500.0, 187500.0, 187500.0, 187500.0, 187500.0, 187500.0, 187500.0, 0.026000000000000002, -0.016, 0.998, 192.0, 0.0, 208.0, 255.0, 128.0, 31.0, 48.0, 0.0, 0.0, 0.0, 1.694680900686731E9, 0.0, 2023-09-14 10:41:40.686
227.0, -20.78712234343557, 187500.0, 187500.0, 187500.0, 187500.0, 187500.0, 187500.0, 187500.0, 0.026000000000000002, -0.016, 0.998, 192.0, 0.0, 0.0, 0.0, 0.0, 0.0, 0.0, 0.0, 0.0, 0.0, 1.6946809006867795E9, 0.0, 2023-09-14 10:41:40.686
228.0, -39.54023594143819, 187500.0, 187500.0, 187500.0, 187500.0, 187500.0, 187500.0, 187500.0, 0.026000000000000002, -0.016, 0.998, 192.0, 0.0, 0.0, 0.0, 0.0, 0.0, 0.0, 0.0, 0.0, 0.0, 1.6946809006868267E9, 0.0, 2023-09-14 10:41:40.686
229.0, -43.652956921214695, 187500.0, 187500.0, 187500.0, 187500.0, 187500.0, 187500.0, 187500.0, 0.026000000000000002, -0.016, 0.998, 192.0, 0.0, 0.0, 0.0, 0.0, 0.0, 0.0, 0.0, 0.0, 0.0, 1.6946809006868765E9, 0.0, 2023-09-14 10:41:40.686
230.0, -43.652956921214695, 187500.0, 187500.0, 187500.0, 187500.0, 187500.0, 187500.0, 187500.0, 0.026000000000000002, -0.016, 0.998, 192.0, 0.0, 0.0, 0.0, 0.0, 0.0, 0.0, 0.0, 0.0, 0.0, 1.694680900686926E9, 0.0, 2023-09-14 10:41:40.686
231.0, -38.713221396591834, 187500.0, 187500.0, 187500.0, 187500.0, 187500.0, 187500.0, 187500.0, 0.026000000000000002, -0.016, 0.998, 192.0, 0.0, 0.0, 0.0, 0.0, 0.0, 0.0, 0.0, 0.0, 0.0, 1.6946809006869464E9, 0.0, 2023-09-14 10:41:40.686
232.0, -20.205976987597584, 187500.0, 187500.0, 187500.0, 187500.0, 187500.0, 187500.0, 187500.0, 0.026000000000000002, -0.016, 0.998, 192.0, 0.0, 0.0, 0.0, 0.0, 0.0, 0.0, 0.0, 0.0, 0.0, 1.6946809006869712E9, 0.0, 2023-09-14 10:41:40.686
233.0, -15.959145541089242, 187500.0, 187500.0, 187500.0, 187500.0, 187500.0, 187500.0, 187500.0, 0.026000000000000002, -0.016, 0.998, 192.0, 0.0, 0.0, 0.0, 0.0, 0.0, 0.0, 0.0, 0.0, 0.0, 1.6946809006869934E9, 0.0, 2023-09-14 10:41:40.686
234.0, -16.003849029999856, 187500.0, 187500.0, 187500.0, 187500.0, 187500.0, 187500.0, 187500.0, 0.026000000000000002, -0.016, 0.998, 192.0, 0.0, 0.0, 0.0, 0.0, 0.0, 0.0, 0.0, 0.0, 0.0, 1.6946809006870131E9, 0.0, 2023-09-14 10:41:40.687
235.0, -20.78712234343557, 187500.0, 187500.0, 187500.0, 187500.0, 187500.0, 187500.0, 187500.0, 0.026000000000000002, -0.016, 0.998, 192.0, 0.0, 0.0, 0.0, 0.0, 0.0, 0.0, 0.0, 0.0, 0.0, 1.6946809006870334E9, 0.0, 2023-09-14 10:41:40.687
236.0, -38.914387096689595, 187500.0, 187500.0, 187500.0, 187500.0, 187500.0, 187500.0, 187500.0, 0.028, -0.02, 1.0, 192.0, 0.0, 224.0, 255.0, 96.0, 31.0, 64.0, 0.0, 0.0, 0.0, 1.6946809006870542E9, 0.0, 2023-09-14 10:41:40.687
237.0, -43.38473598775101, 187500.0, 187500.0, 187500.0, 187500.0, 187500.0, 187500.0, 187500.0, 0.028, -0.02, 1.0, 192.0, 0.0, 0.0, 0.0, 0.0, 0.0, 0.0, 0.0, 0.0, 0.0, 1.694680900687075E9, 0.0, 2023-09-14 10:41:40.687
238.0, -43.720012154580616, 187500.0, 187500.0, 187500.0, 187500.0, 187500.0, 187500.0, 187500.0, 0.028, -0.02, 1.0, 192.0, 0.0, 0.0, 0.0, 0.0, 0.0, 0.0, 0.0, 0.0, 0.0, 1.6946809006870956E9, 0.0, 2023-09-14 10:41:40.687
239.0, -38.646166163225914, 187500.0, 187500.0, 187500.0, 187500.0, 187500.0, 187500.0, 187500.0, 0.028, -0.02, 1.0, 192.0, 0.0, 0.0, 0.0, 0.0, 0.0, 0.0, 0.0, 0.0, 0.0, 1.6946809006871169E9, 0.0, 2023-09-14 10:41:40.687
240.0, -20.273032220963504, 187500.0, 187500.0, 187500.0, 187500.0, 187500.0, 187500.0, 187500.0, 0.028, -0.02, 1.0, 192.0, 0.0, 0.0, 0.0, 0.0, 0.0, 0.0, 0.0, 0.0, 0.0, 1.6946809006871371E9, 0.0, 2023-09-14 10:41:40.687
241.0, -16.048552518910473, 187500.0, 187500.0, 187500.0, 187500.0, 187500.0, 187500.0, 187500.0, 0.028, -0.02, 1.0, 192.0, 0.0, 0.0, 0.0, 0.0, 0.0, 0.0, 0.0, 0.0, 0.0, 1.694680900687158E9, 0.0, 2023-09-14 10:41:40.687
242.0, -16.182662985642313, 187500.0, 187500.0, 187500.0, 187500.0, 187500.0, 187500.0, 187500.0, 0.028, -0.02, 1.0, 192.0, 0.0, 0.0, 0.0, 0.0, 0.0, 0.0, 0.0, 0.0, 0.0, 1.6946809006871784E9, 0.0, 2023-09-14 10:41:40.687
243.0, -20.92123281016741, 187500.0, 187500.0, 187500.0, 187500.0, 187500.0, 187500.0, 187500.0, 0.028, -0.02, 1.0, 192.0, 0.0, 0.0, 0.0, 0.0, 0.0, 0.0, 0.0, 0.0, 0.0, 1.6946809006871996E9, 0.0, 2023-09-14 10:41:40.687
244.0, -39.20495977460859, 187500.0, 187500.0, 187500.0, 187500.0, 187500.0, 187500.0, 187500.0, 0.028, -0.02, 1.0, 192.0, 0.0, 0.0, 0.0, 0.0, 0.0, 0.0, 0.0, 0.0, 0.0, 1.6946809006872213E9, 0.0, 2023-09-14 10:41:40.687
245.0, -43.3623842432957, 187500.0, 187500.0, 187500.0, 187500.0, 187500.0, 187500.0, 187500.0, 0.028, -0.02, 1.0, 192.0, 0.0, 0.0, 0.0, 0.0, 0.0, 0.0, 0.0, 0.0, 0.0, 1.6946809006872425E9, 0.0, 2023-09-14 10:41:40.687
246.0, -42.89299760973425, 187500.0, 187500.0, 187500.0, 187500.0, 187500.0, 187500.0, 187500.0, 0.03, -0.02, 1.01, 192.0, 0.0, 240.0, 255.0, 96.0, 31.0, 144.0, 0.0, 0.0, 0.0, 1.6946809006872647E9, 0.0, 2023-09-14 10:41:40.687
247.0, -38.57911092985999, 187500.0, 187500.0, 187500.0, 187500.0, 187500.0, 187500.0, 187500.0, 0.03, -0.02, 1.01, 192.0, 0.0, 0.0, 0.0, 0.0, 0.0, 0.0, 0.0, 0.0, 0.0, 1.6946809006872869E9, 0.0, 2023-09-14 10:41:40.687
248.0, -20.47419792106127, 187500.0, 187500.0, 187500.0, 187500.0, 187500.0, 187500.0, 187500.0, 0.03, -0.02, 1.01, 192.0, 0.0, 0.0, 0.0, 0.0, 0.0, 0.0, 0.0, 0.0, 0.0, 1.6946809006873083E9, 0.0, 2023-09-14 10:41:40.687
249.0, -16.27206996346354, 187500.0, 187500.0, 187500.0, 187500.0, 187500.0, 187500.0, 187500.0, 0.03, -0.02, 1.01, 192.0, 0.0, 0.0, 0.0, 0.0, 0.0, 0.0, 0.0, 0.0, 0.0, 1.6946809006873305E9, 0.0, 2023-09-14 10:41:40.687
250.0, -16.249718219008233, 187500.0, 187500.0, 187500.0, 187500.0, 187500.0, 187500.0, 187500.0, 0.03, -0.02, 1.01, 192.0, 0.0, 0.0, 0.0, 0.0, 0.0, 0.0, 0.0, 0.0, 0.0, 1.694680900687352E9, 0.0, 2023-09-14 10:41:40.687
251.0, -20.675363621159033, 187500.0, 187500.0, 187500.0, 187500.0, 187500.0, 187500.0, 187500.0, 0.03, -0.02, 1.01, 192.0, 0.0, 0.0, 0.0, 0.0, 0.0, 0.0, 0.0, 0.0, 0.0, 1.694680900687374E9, 0.0, 2023-09-14 10:41:40.687
252.0, -38.89203535223429, 187500.0, 187500.0, 187500.0, 187500.0, 187500.0, 187500.0, 187500.0, 0.03, -0.02, 1.01, 192.0, 0.0, 0.0, 0.0, 0.0, 0.0, 0.0, 0.0, 0.0, 0.0, 1.6946809006873963E9, 0.0, 2023-09-14 10:41:40.687
253.0, -43.54119819893816, 187500.0, 187500.0, 187500.0, 187500.0, 187500.0, 187500.0, 187500.0, 0.03, -0.02, 1.01, 192.0, 0.0, 0.0, 0.0, 0.0, 0.0, 0.0, 0.0, 0.0, 0.0, 1.694680900687418E9, 0.0, 2023-09-14 10:41:40.687
254.0, -43.31768075438509, 187500.0, 187500.0, 187500.0, 187500.0, 187500.0, 187500.0, 187500.0, 0.03, -0.02, 1.01, 192.0, 0.0, 0.0, 0.0, 0.0, 0.0, 0.0, 0.0, 0.0, 0.0, 1.6946809006874416E9, 0.0, 2023-09-14 10:41:40.687
255.0, -38.6014626743153, 187500.0, 187500.0, 187500.0, 187500.0, 187500.0, 187500.0, 187500.0, 0.03, -0.02, 1.01, 192.0, 0.0, 0.0, 0.0, 0.0, 0.0, 0.0, 0.0, 0.0, 0.0, 1.6946809006874633E9, 0.0, 2023-09-14 10:41:40.687
0.0, -20.675363621159033, 187500.0, 187500.0, 187500.0, 187500.0, 187500.0, 187500.0, 187500.0, 0.036000000000000004, -0.018000000000000002, 1.014, 192.0, 1.0, 32.0, 255.0, 112.0, 31.0, 176.0, 0.0, 0.0, 0.0, 1.6946809006874835E9, 0.0, 2023-09-14 10:41:40.687
1.0, -16.316773452374157, 187500.0, 187500.0, 187500.0, 187500.0, 187500.0, 187500.0, 187500.0, 0.036000000000000004, -0.018000000000000002, 1.014, 192.0, 0.0, 0.0, 0.0, 0.0, 0.0, 0.0, 0.0, 0.0, 0.0, 1.6946809006875043E9, 0.0, 2023-09-14 10:41:40.687
2.0, -15.869738563268015, 187500.0, 187500.0, 187500.0, 187500.0, 187500.0, 187500.0, 187500.0, 0.036000000000000004, -0.018000000000000002, 1.014, 192.0, 0.0, 0.0, 0.0, 0.0, 0.0, 0.0, 0.0, 0.0, 0.0, 1.6946809006875253E9, 0.0, 2023-09-14 10:41:40.687
3.0, -20.78712234343557, 187500.0, 187500.0, 187500.0, 187500.0, 187500.0, 187500.0, 187500.0, 0.036000000000000004, -0.018000000000000002, 1.014, 192.0, 0.0, 0.0, 0.0, 0.0, 0.0, 0.0, 0.0, 0.0, 0.0, 1.694680900687549E9, 0.0, 2023-09-14 10:41:40.687
4.0, -39.2496632635192, 187500.0, 187500.0, 187500.0, 187500.0, 187500.0, 187500.0, 187500.0, 0.036000000000000004, -0.018000000000000002, 1.014, 192.0, 0.0, 0.0, 0.0, 0.0, 0.0, 0.0, 0.0, 0.0, 0.0, 1.6946809006875696E9, 0.0, 2023-09-14 10:41:40.687
5.0, -43.474142965572234, 187500.0, 187500.0, 187500.0, 187500.0, 187500.0, 187500.0, 187500.0, 0.036000000000000004, -0.018000000000000002, 1.014, 192.0, 0.0, 0.0, 0.0, 0.0, 0.0, 0.0, 0.0, 0.0, 0.0, 1.6946809006875906E9, 0.0, 2023-09-14 10:41:40.687
6.0, -43.13886679874263, 187500.0, 187500.0, 187500.0, 187500.0, 187500.0, 187500.0, 187500.0, 0.036000000000000004, -0.018000000000000002, 1.014, 192.0, 0.0, 0.0, 0.0, 0.0, 0.0, 0.0, 0.0, 0.0, 0.0, 1.6946809006876123E9, 0.0, 2023-09-14 10:41:40.687
7.0, -38.53440744094937, 187500.0, 187500.0, 187500.0, 187500.0, 187500.0, 187500.0, 187500.0, 0.036000000000000004, -0.018000000000000002, 1.014, 192.0, 0.0, 0.0, 0.0, 0.0, 0.0, 0.0, 0.0, 0.0, 0.0, 1.694680900687634E9, 0.0, 2023-09-14 10:41:40.687
8.0, -20.585956643337806, 187500.0, 187500.0, 187500.0, 187500.0, 187500.0, 187500.0, 187500.0, 0.036000000000000004, -0.018000000000000002, 1.014, 192.0, 0.0, 0.0, 0.0, 0.0, 0.0, 0.0, 0.0, 0.0, 0.0, 1.6946809006876557E9, 0.0, 2023-09-14 10:41:40.687
9.0, -15.892090307723322, 187500.0, 187500.0, 187500.0, 187500.0, 187500.0, 187500.0, 187500.0, 0.036000000000000004, -0.018000000000000002, 1.014, 192.0, 0.0, 0.0, 0.0, 0.0, 0.0, 0.0, 0.0, 0.0, 0.0, 1.694680900687678E9, 0.0, 2023-09-14 10:41:40.687
10.0, -15.847386818812707, 187500.0, 187500.0, 187500.0, 187500.0, 187500.0, 187500.0, 187500.0, 0.032, -0.014, 1.008, 192.0, 1.0, 0.0, 255.0, 144.0, 31.0, 128.0, 0.0, 0.0, 0.0, 1.6946809006876993E9, 0.0, 2023-09-14 10:41:40.687
11.0, -20.720067110069646, 187500.0, 187500.0, 187500.0, 187500.0, 187500.0, 187500.0, 187500.0, 0.032, -0.014, 1.008, 192.0, 0.0, 0.0, 0.0, 0.0, 0.0, 0.0, 0.0, 0.0, 0.0, 1.6946809006877203E9, 0.0, 2023-09-14 10:41:40.687
12.0, -39.294366752429816, 187500.0, 187500.0, 187500.0, 187500.0, 187500.0, 187500.0, 187500.0, 0.032, -0.014, 1.008, 192.0, 0.0, 0.0, 0.0, 0.0, 0.0, 0.0, 0.0, 0.0, 0.0, 1.694680900687743E9, 0.0, 2023-09-14 10:41:40.687
13.0, -43.69766041012531, 187500.0, 187500.0, 187500.0, 187500.0, 187500.0, 187500.0, 187500.0, 0.032, -0.014, 1.008, 192.0, 0.0, 0.0, 0.0, 0.0, 0.0, 0.0, 0.0, 0.0, 0.0, 1.6946809006877656E9, 0.0, 2023-09-14 10:41:40.687
