%OpenBCI Raw EXG Data
%Number of channels = 8
%Sample Rate = 250 Hz
%Board = OpenBCI_GUI$BoardCytonSerial
Sample Index, EXG Channel 0, EXG Channel 1, EXG Channel 2, EXG Channel 3, EXG Channel 4, EXG Channel 5, EXG Channel 6, EXG Channel 7, Accel Channel 0, Accel Channel 1, Accel Channel 2, Other, Other, Other, Other, Other, Other, Other, Analog Channel 0, Analog Channel 1, Analog Channel 2, Timestamp, Other, Timestamp (Formatted)
0.0, 0.0, 0.0, 0.0, 0.0, 0.0, 0.0, 0.0, 0.0, 0.03, -0.016, 1.004, 192.0, 0.0, 240.0, 255.0, 128.0, 31.0, 96.0, 0.0, 0.0, 0.0, 1.6946816607829728E9, 0.0, 2023-09-14 10:54:20.782
1.0, -14.662744362681433, 187500.0, 187500.0, 187500.0, 187500.0, 187500.0, 187500.0, 187500.0, 0.03, -0.016, 1.004, 192.0, 0.0, 0.0, 0.0, 0.0, 0.0, 0.0, 0.0, 0.0, 0.0, 1.6946816612610693E9, 0.0, 2023-09-14 10:54:21.261
2.0, -10.482968149539012, 187500.0, 187500.0, 187500.0, 187500.0, 187500.0, 187500.0, 187500.0, 0.03, -0.016, 1.004, 192.0, 0.0, 0.0, 0.0, 0.0, 0.0, 0.0, 0.0, 0.0, 0.0, 1.6946816612611592E9, 0.0, 2023-09-14 10:54:21.261
3.0, -10.527671638449627, 187500.0, 187500.0, 187500.0, 187500.0, 187500.0, 187500.0, 187500.0, 0.03, -0.016, 1.004, 192.0, 0.0, 0.0, 0.0, 0.0, 0.0, 0.0, 0.0, 0.0, 0.0, 1.6946816612612247E9, 0.0, 2023-09-14 10:54:21.261
4.0, -15.601517629804329, 187500.0, 187500.0, 187500.0, 187500.0, 187500.0, 187500.0, 187500.0, 0.03, -0.016, 1.004, 192.0, 0.0, 0.0, 0.0, 0.0, 0.0, 0.0, 0.0, 0.0, 0.0, 1.6946816612612934E9, 0.0, 2023-09-14 10:54:21.261
5.0, -34.287575994441035, 187500.0, 187500.0, 187500.0, 187500.0, 187500.0, 187500.0, 187500.0, 0.03, -0.016, 1.004, 192.0, 0.0, 0.0, 0.0, 0.0, 0.0, 0.0, 0.0, 0.0, 0.0, 1.694681661261334E9, 0.0, 2023-09-14 10:54:21.261
6.0, -38.6014626743153, 187500.0, 187500.0, 187500.0, 187500.0, 187500.0, 187500.0, 187500.0, 0.03, -0.016, 1.004, 192.0, 0.0, 0.0, 0.0, 0.0, 0.0, 0.0, 0.0, 0.0, 0.0, 1.6946816612613683E9, 0.0, 2023-09-14 10:54:21.261
7.0, -38.73557314104714, 187500.0, 187500.0, 187500.0, 187500.0, 187500.0, 187500.0, 187500.0, 0.03, -0.016, 1.004, 192.0, 0.0, 0.0, 0.0, 0.0, 0.0, 0.0, 0.0, 0.0, 0.0, 1.6946816612613933E9, 0.0, 2023-09-14 10:54:21.261
8.0, -33.684078894147746, 187500.0, 187500.0, 187500.0, 187500.0, 187500.0, 187500.0, 187500.0, 0.03, -0.018000000000000002, 1.004, 192.0, 0.0, 240.0, 255.0, 112.0, 31.0, 96.0, 0.0, 0.0, 0.0, 1.6946816612614193E9, 0.0, 2023-09-14 10:54:21.261
9.0, -14.729799596047354, 187500.0, 187500.0, 187500.0, 187500.0, 187500.0, 187500.0, 187500.0, 0.03, -0.018000000000000002, 1.004, 192.0, 0.0, 0.0, 0.0, 0.0, 0.0, 0.0, 0.0, 0.0, 0.0, 1.6946816612614455E9, 0.0, 2023-09-14 10:54:21.261
10.0, -10.28180244944125, 187500.0, 187500.0, 187500.0, 187500.0, 187500.0, 187500.0, 187500.0, 0.03, -0.018000000000000002, 1.004, 192.0, 0.0, 0.0, 0.0, 0.0, 0.0, 0.0, 0.0, 0.0, 0.0, 1.6946816612614708E9, 0.0, 2023-09-14 10:54:21.261
11.0, -10.34885768280717, 187500.0, 187500.0, 187500.0, 187500.0, 187500.0, 187500.0, 187500.0, 0.03, -0.018000000000000002, 1.004, 192.0, 0.0, 0.0, 0.0, 0.0, 0.0, 0.0, 0.0, 0.0, 0.0, 1.6946816612614956E9, 0.0, 2023-09-14 10:54:21.261
12.0, -15.556814140893716, 187500.0, 187500.0, 187500.0, 187500.0, 187500.0, 187500.0, 187500.0, 0.03, -0.018000000000000002, 1.004, 192.0, 0.0, 0.0, 0.0, 0.0, 0.0, 0.0, 0.0, 0.0, 0.0, 1.6946816612615204E9, 0.0, 2023-09-14 10:54:21.261
13.0, -33.84054110533489, 187500.0, 187500.0, 187500.0, 187500.0, 187500.0, 187500.0, 187500.0, 0.03, -0.018000000000000002, 1.004, 192.0, 0.0, 0.0, 0.0, 0.0, 0.0, 0.0, 0.0, 0.0, 0.0, 1.6946816612615452E9, 0.0, 2023-09-14 10:54:21.261
14.0, -38.243834763030385, 187500.0, 187500.0, 187500.0, 187500.0, 187500.0, 187500.0, 187500.0, 0.03, -0.018000000000000002, 1.004, 192.0, 0.0, 0.0, 0.0, 0.0, 0.0, 0.0, 0.0, 0.0, 0.0, 1.6946816612615705E9, 0.0, 2023-09-14 10:54:21.261
15.0, -38.66851790768122, 187500.0, 187500.0, 187500.0, 187500.0, 187500.0, 187500.0, 187500.0, 0.03, -0.018000000000000002, 1.004, 192.0, 0.0, 0.0, 0.0, 0.0, 0.0, 0.0, 0.0, 0.0, 0.0, 1.6946816612615955E9, 0.0, 2023-09-14 10:54:21.261
16.0, -33.99700331652204, 187500.0, 187500.0, 187500.0, 187500.0, 187500.0, 187500.0, 187500.0, 0.03, -0.018000000000000002, 1.004, 192.0, 0.0, 0.0, 0.0, 0.0, 0.0, 0.0, 0.0, 0.0, 0.0, 1.6946816612791889E9, 0.0, 2023-09-14 10:54:21.279
17.0, -14.975668785055731, 187500.0, 187500.0, 187500.0, 187500.0, 187500.0, 187500.0, 187500.0, 0.03, -0.02, 1.006, 192.0, 0.0, 240.0, 255.0, 96.0, 31.0, 112.0, 0.0, 0.0, 0.0, 1.6946816612792337E9, 0.0, 2023-09-14 10:54:21.279
18.0, -10.415912916173092, 187500.0, 187500.0, 187500.0, 187500.0, 187500.0, 187500.0, 187500.0, 0.03, -0.02, 1.006, 192.0, 0.0, 0.0, 0.0, 0.0, 0.0, 0.0, 0.0, 0.0, 0.0, 1.6946816612792635E9, 0.0, 2023-09-14 10:54:21.279
19.0, -10.102988493798792, 187500.0, 187500.0, 187500.0, 187500.0, 187500.0, 187500.0, 187500.0, 0.03, -0.02, 1.006, 192.0, 0.0, 0.0, 0.0, 0.0, 0.0, 0.0, 0.0, 0.0, 0.0, 1.6946816612792895E9, 0.0, 2023-09-14 10:54:21.279
20.0, -15.37800018525126, 187500.0, 187500.0, 187500.0, 187500.0, 187500.0, 187500.0, 187500.0, 0.03, -0.02, 1.006, 192.0, 0.0, 0.0, 0.0, 0.0, 0.0, 0.0, 0.0, 0.0, 0.0, 1.6946816612793148E9, 0.0, 2023-09-14 10:54:21.279
21.0, -34.354631227806955, 187500.0, 187500.0, 187500.0, 187500.0, 187500.0, 187500.0, 187500.0, 0.03, -0.02, 1.006, 192.0, 0.0, 0.0, 0.0, 0.0, 0.0, 0.0, 0.0, 0.0, 0.0, 1.6946816612793396E9, 0.0, 2023-09-14 10:54:21.279
22.0, -38.62381441877061, 187500.0, 187500.0, 187500.0, 187500.0, 187500.0, 187500.0, 187500.0, 0.03, -0.02, 1.006, 192.0, 0.0, 0.0, 0.0, 0.0, 0.0, 0.0, 0.0, 0.0, 0.0, 1.694681661279364E9, 0.0, 2023-09-14 10:54:21.279
23.0, -38.847331863323674, 187500.0, 187500.0, 187500.0, 187500.0, 187500.0, 187500.0, 187500.0, 0.03, -0.02, 1.006, 192.0, 0.0, 0.0, 0.0, 0.0, 0.0, 0.0, 0.0, 0.0, 0.0, 1.694681661279388E9, 0.0, 2023-09-14 10:54:21.279
24.0, -33.572320171871205, 187500.0, 187500.0, 187500.0, 187500.0, 187500.0, 187500.0, 187500.0, 0.03, -0.02, 1.006, 192.0, 0.0, 0.0, 0.0, 0.0, 0.0, 0.0, 0.0, 0.0, 0.0, 1.6946816612794123E9, 0.0, 2023-09-14 10:54:21.279
25.0, -14.729799596047354, 187500.0, 187500.0, 187500.0, 187500.0, 187500.0, 187500.0, 187500.0, 0.03, -0.02, 1.006, 192.0, 0.0, 0.0, 0.0, 0.0, 0.0, 0.0, 0.0, 0.0, 0.0, 1.6946816612794385E9, 0.0, 2023-09-14 10:54:21.279
26.0, -10.460616405083705, 187500.0, 187500.0, 187500.0, 187500.0, 187500.0, 187500.0, 187500.0, 0.03, -0.02, 1.006, 192.0, 0.0, 0.0, 0.0, 0.0, 0.0, 0.0, 0.0, 0.0, 0.0, 1.6946816612794626E9, 0.0, 2023-09-14 10:54:21.279
27.0, -10.505319893994319, 187500.0, 187500.0, 187500.0, 187500.0, 187500.0, 187500.0, 187500.0, 0.036000000000000004, -0.022, 1.002, 192.0, 1.0, 32.0, 255.0, 80.0, 31.0, 80.0, 0.0, 0.0, 0.0, 1.694681661279487E9, 0.0, 2023-09-14 10:54:21.279
28.0, -15.690924607625558, 187500.0, 187500.0, 187500.0, 187500.0, 187500.0, 187500.0, 187500.0, 0.036000000000000004, -0.022, 1.002, 192.0, 0.0, 0.0, 0.0, 0.0, 0.0, 0.0, 0.0, 0.0, 0.0, 1.694681661279513E9, 0.0, 2023-09-14 10:54:21.279
29.0, -34.220520761075115, 187500.0, 187500.0, 187500.0, 187500.0, 187500.0, 187500.0, 187500.0, 0.036000000000000004, -0.022, 1.002, 192.0, 0.0, 0.0, 0.0, 0.0, 0.0, 0.0, 0.0, 0.0, 0.0, 1.6946816612795372E9, 0.0, 2023-09-14 10:54:21.279
30.0, -38.445000463128146, 187500.0, 187500.0, 187500.0, 187500.0, 187500.0, 187500.0, 187500.0, 0.036000000000000004, -0.022, 1.002, 192.0, 0.0, 0.0, 0.0, 0.0, 0.0, 0.0, 0.0, 0.0, 0.0, 1.6946816612795613E9, 0.0, 2023-09-14 10:54:21.279
31.0, -38.6014626743153, 187500.0, 187500.0, 187500.0, 187500.0, 187500.0, 187500.0, 187500.0, 0.036000000000000004, -0.022, 1.002, 192.0, 0.0, 0.0, 0.0, 0.0, 0.0, 0.0, 0.0, 0.0, 0.0, 1.6946816612797096E9, 0.0, 2023-09-14 10:54:21.279
32.0, -34.01935506097735, 187500.0, 187500.0, 187500.0, 187500.0, 187500.0, 187500.0, 187500.0, 0.036000000000000004, -0.022, 1.002, 192.0, 0.0, 0.0, 0.0, 0.0, 0.0, 0.0, 0.0, 0.0, 0.0, 1.694681661279735E9, 0.0, 2023-09-14 10:54:21.279
33.0, -15.109779251787574, 187500.0, 187500.0, 187500.0, 187500.0, 187500.0, 187500.0, 187500.0, 0.036000000000000004, -0.022, 1.002, 192.0, 0.0, 0.0, 0.0, 0.0, 0.0, 0.0, 0.0, 0.0, 0.0, 1.694681661279759E9, 0.0, 2023-09-14 10:54:21.279
34.0, -10.393561171717785, 187500.0, 187500.0, 187500.0, 187500.0, 187500.0, 187500.0, 187500.0, 0.036000000000000004, -0.022, 1.002, 192.0, 0.0, 0.0, 0.0, 0.0, 0.0, 0.0, 0.0, 0.0, 0.0, 1.6946816612797832E9, 0.0, 2023-09-14 10:54:21.279
35.0, -10.505319893994319, 187500.0, 187500.0, 187500.0, 187500.0, 187500.0, 187500.0, 187500.0, 0.036000000000000004, -0.022, 1.002, 192.0, 0.0, 0.0, 0.0, 0.0, 0.0, 0.0, 0.0, 0.0, 0.0, 1.694681661279807E9, 0.0, 2023-09-14 10:54:21.279
36.0, -15.355648440795951, 187500.0, 187500.0, 187500.0, 187500.0, 187500.0, 187500.0, 187500.0, 0.036000000000000004, -0.022, 1.002, 192.0, 0.0, 0.0, 0.0, 0.0, 0.0, 0.0, 0.0, 0.0, 0.0, 1.6946816612798314E9, 0.0, 2023-09-14 10:54:21.279
37.0, -34.220520761075115, 187500.0, 187500.0, 187500.0, 187500.0, 187500.0, 187500.0, 187500.0, 0.036000000000000004, -0.02, 1.002, 192.0, 1.0, 32.0, 255.0, 96.0, 31.0, 80.0, 0.0, 0.0, 0.0, 1.6946816612798555E9, 0.0, 2023-09-14 10:54:21.279
38.0, -38.80262837441306, 187500.0, 187500.0, 187500.0, 187500.0, 187500.0, 187500.0, 187500.0, 0.036000000000000004, -0.02, 1.002, 192.0, 0.0, 0.0, 0.0, 0.0, 0.0, 0.0, 0.0, 0.0, 0.0, 1.6946816612798905E9, 0.0, 2023-09-14 10:54:21.279
39.0, -38.57911092985999, 187500.0, 187500.0, 187500.0, 187500.0, 187500.0, 187500.0, 187500.0, 0.036000000000000004, -0.02, 1.002, 192.0, 0.0, 0.0, 0.0, 0.0, 0.0, 0.0, 0.0, 0.0, 0.0, 1.6946816612799146E9, 0.0, 2023-09-14 10:54:21.279
40.0, -33.572320171871205, 187500.0, 187500.0, 187500.0, 187500.0, 187500.0, 187500.0, 187500.0, 0.036000000000000004, -0.02, 1.002, 192.0, 0.0, 0.0, 0.0, 0.0, 0.0, 0.0, 0.0, 0.0, 0.0, 1.6946816612799385E9, 0.0, 2023-09-14 10:54:21.279
41.0, -14.774503084957969, 187500.0, 187500.0, 187500.0, 187500.0, 187500.0, 187500.0, 187500.0, 0.036000000000000004, -0.02, 1.002, 192.0, 0.0, 0.0, 0.0, 0.0, 0.0, 0.0, 0.0, 0.0, 0.0, 1.6946816612799623E9, 0.0, 2023-09-14 10:54:21.279
42.0, -10.72883733854739, 187500.0, 187500.0, 187500.0, 187500.0, 187500.0, 187500.0, 187500.0, 0.036000000000000004, -0.02, 1.002, 192.0, 0.0, 0.0, 0.0, 0.0, 0.0, 0.0, 0.0, 0.0, 0.0, 1.694681661279986E9, 0.0, 2023-09-14 10:54:21.279
43.0, -10.371209427262476, 187500.0, 187500.0, 187500.0, 187500.0, 187500.0, 187500.0, 187500.0, 0.036000000000000004, -0.02, 1.002, 192.0, 0.0, 0.0, 0.0, 0.0, 0.0, 0.0, 0.0, 0.0, 0.0, 1.69468166128001E9, 0.0, 2023-09-14 10:54:21.280
44.0, -15.512110651983102, 187500.0, 187500.0, 187500.0, 187500.0, 187500.0, 187500.0, 187500.0, 0.036000000000000004, -0.02, 1.002, 192.0, 0.0, 0.0, 0.0, 0.0, 0.0, 0.0, 0.0, 0.0, 0.0, 1.694681661280034E9, 0.0, 2023-09-14 10:54:21.280
45.0, -34.19816901661981, 187500.0, 187500.0, 187500.0, 187500.0, 187500.0, 187500.0, 187500.0, 0.036000000000000004, -0.02, 1.002, 192.0, 0.0, 0.0, 0.0, 0.0, 0.0, 0.0, 0.0, 0.0, 0.0, 1.694681661280058E9, 0.0, 2023-09-14 10:54:21.280
46.0, -38.89203535223429, 187500.0, 187500.0, 187500.0, 187500.0, 187500.0, 187500.0, 187500.0, 0.036000000000000004, -0.02, 1.002, 192.0, 0.0, 0.0, 0.0, 0.0, 0.0, 0.0, 0.0, 0.0, 0.0, 1.6946816612800817E9, 0.0, 2023-09-14 10:54:21.280
47.0, -38.780276629957754, 187500.0, 187500.0, 187500.0, 187500.0, 187500.0, 187500.0, 187500.0, 0.034, -0.022, 1.0, 192.0, 1.0, 16.0, 255.0, 80.0, 31.0, 64.0, 0.0, 0.0, 0.0, 1.694681661280141E9, 0.0, 2023-09-14 10:54:21.280
48.0, -33.885244594245506, 187500.0, 187500.0, 187500.0, 187500.0, 187500.0, 187500.0, 187500.0, 0.034, -0.022, 1.0, 192.0, 0.0, 0.0, 0.0, 0.0, 0.0, 0.0, 0.0, 0.0, 0.0, 1.6946816612801805E9, 0.0, 2023-09-14 10:54:21.280
49.0, -14.930965296145118, 187500.0, 187500.0, 187500.0, 187500.0, 187500.0, 187500.0, 187500.0, 0.034, -0.022, 1.0, 192.0, 0.0, 0.0, 0.0, 0.0, 0.0, 0.0, 0.0, 0.0, 0.0, 1.694681661280223E9, 0.0, 2023-09-14 10:54:21.280
50.0, -10.34885768280717, 187500.0, 187500.0, 187500.0, 187500.0, 187500.0, 187500.0, 187500.0, 0.034, -0.022, 1.0, 192.0, 0.0, 0.0, 0.0, 0.0, 0.0, 0.0, 0.0, 0.0, 0.0, 1.694681661280248E9, 0.0, 2023-09-14 10:54:21.280
51.0, -10.594726871815547, 187500.0, 187500.0, 187500.0, 187500.0, 187500.0, 187500.0, 187500.0, 0.034, -0.022, 1.0, 192.0, 0.0, 0.0, 0.0, 0.0, 0.0, 0.0, 0.0, 0.0, 0.0, 1.6946816612802725E9, 0.0, 2023-09-14 10:54:21.280
52.0, -15.467407163072487, 187500.0, 187500.0, 187500.0, 187500.0, 187500.0, 187500.0, 187500.0, 0.034, -0.022, 1.0, 192.0, 0.0, 0.0, 0.0, 0.0, 0.0, 0.0, 0.0, 0.0, 0.0, 1.694681661280296E9, 0.0, 2023-09-14 10:54:21.280
53.0, -34.220520761075115, 187500.0, 187500.0, 187500.0, 187500.0, 187500.0, 187500.0, 187500.0, 0.034, -0.022, 1.0, 192.0, 0.0, 0.0, 0.0, 0.0, 0.0, 0.0, 0.0, 0.0, 0.0, 1.6946816612803197E9, 0.0, 2023-09-14 10:54:21.280
54.0, -38.80262837441306, 187500.0, 187500.0, 187500.0, 187500.0, 187500.0, 187500.0, 187500.0, 0.034, -0.022, 1.0, 192.0, 0.0, 0.0, 0.0, 0.0, 0.0, 0.0, 0.0, 0.0, 0.0, 1.6946816612803435E9, 0.0, 2023-09-14 10:54:21.280
55.0, -38.48970395203876, 187500.0, 187500.0, 187500.0, 187500.0, 187500.0, 187500.0, 187500.0, 0.034, -0.022, 1.0, 192.0, 0.0, 0.0, 0.0, 0.0, 0.0, 0.0, 0.0, 0.0, 0.0, 1.6946816612803676E9, 0.0, 2023-09-14 10:54:21.280
56.0, -33.79583761642428, 187500.0, 187500.0, 187500.0, 187500.0, 187500.0, 187500.0, 187500.0, 0.034, -0.022, 1.0, 192.0, 0.0, 0.0, 0.0, 0.0, 0.0, 0.0, 0.0, 0.0, 0.0, 1.6946816612803915E9, 0.0, 2023-09-14 10:54:21.280
57.0, -14.99802052951104, 187500.0, 187500.0, 187500.0, 187500.0, 187500.0, 187500.0, 187500.0, 0.034, -0.022, 0.998, 192.0, 1.0, 16.0, 255.0, 80.0, 31.0, 48.0, 0.0, 0.0, 0.0, 1.6946816612804153E9, 0.0, 2023-09-14 10:54:21.280
58.0, -10.482968149539012, 187500.0, 187500.0, 187500.0, 187500.0, 187500.0, 187500.0, 187500.0, 0.034, -0.022, 0.998, 192.0, 0.0, 0.0, 0.0, 0.0, 0.0, 0.0, 0.0, 0.0, 0.0, 1.6946816612804408E9, 0.0, 2023-09-14 10:54:21.280
59.0, -10.57237512736024, 187500.0, 187500.0, 187500.0, 187500.0, 187500.0, 187500.0, 187500.0, 0.034, -0.022, 0.998, 192.0, 0.0, 0.0, 0.0, 0.0, 0.0, 0.0, 0.0, 0.0, 0.0, 1.6946816612804694E9, 0.0, 2023-09-14 10:54:21.280
60.0, -15.579165885349022, 187500.0, 187500.0, 187500.0, 187500.0, 187500.0, 187500.0, 187500.0, 0.034, -0.022, 0.998, 192.0, 0.0, 0.0, 0.0, 0.0, 0.0, 0.0, 0.0, 0.0, 0.0, 1.694681661280494E9, 0.0, 2023-09-14 10:54:21.280
61.0, -34.153465527709194, 187500.0, 187500.0, 187500.0, 187500.0, 187500.0, 187500.0, 187500.0, 0.034, -0.022, 0.998, 192.0, 0.0, 0.0, 0.0, 0.0, 0.0, 0.0, 0.0, 0.0, 0.0, 1.6946816612805176E9, 0.0, 2023-09-14 10:54:21.280
62.0, -38.75792488550245, 187500.0, 187500.0, 187500.0, 187500.0, 187500.0, 187500.0, 187500.0, 0.034, -0.022, 0.998, 192.0, 0.0, 0.0, 0.0, 0.0, 0.0, 0.0, 0.0, 0.0, 0.0, 1.6946816612806208E9, 0.0, 2023-09-14 10:54:21.280
63.0, -38.75792488550245, 187500.0, 187500.0, 187500.0, 187500.0, 187500.0, 187500.0, 187500.0, 0.034, -0.022, 0.998, 192.0, 0.0, 0.0, 0.0, 0.0, 0.0, 0.0, 0.0, 0.0, 0.0, 1.6946816612806456E9, 0.0, 2023-09-14 10:54:21.280
64.0, -33.52761668296059, 187500.0, 187500.0, 187500.0, 187500.0, 187500.0, 187500.0, 187500.0, 0.034, -0.022, 0.998, 192.0, 0.0, 0.0, 0.0, 0.0, 0.0, 0.0, 0.0, 0.0, 0.0, 1.69468166128067E9, 0.0, 2023-09-14 10:54:21.280
65.0, -14.662744362681433, 187500.0, 187500.0, 187500.0, 187500.0, 187500.0, 187500.0, 187500.0, 0.034, -0.022, 0.998, 192.0, 0.0, 0.0, 0.0, 0.0, 0.0, 0.0, 0.0, 0.0, 0.0, 1.694681661280694E9, 0.0, 2023-09-14 10:54:21.280
66.0, -10.550023382904934, 187500.0, 187500.0, 187500.0, 187500.0, 187500.0, 187500.0, 187500.0, 0.034, -0.022, 0.998, 192.0, 0.0, 0.0, 0.0, 0.0, 0.0, 0.0, 0.0, 0.0, 0.0, 1.694681661280718E9, 0.0, 2023-09-14 10:54:21.280
67.0, -10.617078616270854, 187500.0, 187500.0, 187500.0, 187500.0, 187500.0, 187500.0, 187500.0, 0.04, -0.02, 0.996, 192.0, 1.0, 64.0, 255.0, 96.0, 31.0, 32.0, 0.0, 0.0, 0.0, 1.694681661280742E9, 0.0, 2023-09-14 10:54:21.280
68.0, -15.623869374259638, 187500.0, 187500.0, 187500.0, 187500.0, 187500.0, 187500.0, 187500.0, 0.04, -0.02, 0.996, 192.0, 0.0, 0.0, 0.0, 0.0, 0.0, 0.0, 0.0, 0.0, 0.0, 1.6946816612807672E9, 0.0, 2023-09-14 10:54:21.280
69.0, -34.19816901661981, 187500.0, 187500.0, 187500.0, 187500.0, 187500.0, 187500.0, 187500.0, 0.04, -0.02, 0.996, 192.0, 0.0, 0.0, 0.0, 0.0, 0.0, 0.0, 0.0, 0.0, 0.0, 1.6946816612807913E9, 0.0, 2023-09-14 10:54:21.280
70.0, -38.57911092985999, 187500.0, 187500.0, 187500.0, 187500.0, 187500.0, 187500.0, 187500.0, 0.04, -0.02, 0.996, 192.0, 0.0, 0.0, 0.0, 0.0, 0.0, 0.0, 0.0, 0.0, 0.0, 1.694681661280815E9, 0.0, 2023-09-14 10:54:21.280
71.0, -38.73557314104714, 187500.0, 187500.0, 187500.0, 187500.0, 187500.0, 187500.0, 187500.0, 0.04, -0.02, 0.996, 192.0, 0.0, 0.0, 0.0, 0.0, 0.0, 0.0, 0.0, 0.0, 0.0, 1.6946816612808387E9, 0.0, 2023-09-14 10:54:21.280
72.0, -34.06405854988796, 187500.0, 187500.0, 187500.0, 187500.0, 187500.0, 187500.0, 187500.0, 0.04, -0.02, 0.996, 192.0, 0.0, 0.0, 0.0, 0.0, 0.0, 0.0, 0.0, 0.0, 0.0, 1.694681661280863E9, 0.0, 2023-09-14 10:54:21.280
73.0, -15.109779251787574, 187500.0, 187500.0, 187500.0, 187500.0, 187500.0, 187500.0, 187500.0, 0.04, -0.02, 0.996, 192.0, 0.0, 0.0, 0.0, 0.0, 0.0, 0.0, 0.0, 0.0, 0.0, 1.6946816612808871E9, 0.0, 2023-09-14 10:54:21.280
74.0, -10.639430360726163, 187500.0, 187500.0, 187500.0, 187500.0, 187500.0, 187500.0, 187500.0, 0.04, -0.02, 0.996, 192.0, 0.0, 0.0, 0.0, 0.0, 0.0, 0.0, 0.0, 0.0, 0.0, 1.6946816612809112E9, 0.0, 2023-09-14 10:54:21.280
75.0, -10.214747216075327, 187500.0, 187500.0, 187500.0, 187500.0, 187500.0, 187500.0, 187500.0, 0.04, -0.02, 0.996, 192.0, 0.0, 0.0, 0.0, 0.0, 0.0, 0.0, 0.0, 0.0, 0.0, 1.6946816612809353E9, 0.0, 2023-09-14 10:54:21.280
76.0, -15.467407163072487, 187500.0, 187500.0, 187500.0, 187500.0, 187500.0, 187500.0, 187500.0, 0.04, -0.02, 0.996, 192.0, 0.0, 0.0, 0.0, 0.0, 0.0, 0.0, 0.0, 0.0, 0.0, 1.694681661280959E9, 0.0, 2023-09-14 10:54:21.280
77.0, -34.33227948335165, 187500.0, 187500.0, 187500.0, 187500.0, 187500.0, 187500.0, 187500.0, 0.04, -0.018000000000000002, 0.998, 192.0, 1.0, 64.0, 255.0, 112.0, 31.0, 48.0, 0.0, 0.0, 0.0, 1.6946816612810545E9, 0.0, 2023-09-14 10:54:21.281
78.0, -38.512055696494066, 187500.0, 187500.0, 187500.0, 187500.0, 187500.0, 187500.0, 187500.0, 0.04, -0.018000000000000002, 0.998, 192.0, 0.0, 0.0, 0.0, 0.0, 0.0, 0.0, 0.0, 0.0, 0.0, 1.6946816612810829E9, 0.0, 2023-09-14 10:54:21.281
79.0, -38.53440744094937, 187500.0, 187500.0, 187500.0, 187500.0, 187500.0, 187500.0, 187500.0, 0.04, -0.018000000000000002, 0.998, 192.0, 0.0, 0.0, 0.0, 0.0, 0.0, 0.0, 0.0, 0.0, 0.0, 1.6946816612811072E9, 0.0, 2023-09-14 10:54:21.281
80.0, -33.77348587196897, 187500.0, 187500.0, 187500.0, 187500.0, 187500.0, 187500.0, 187500.0, 0.04, -0.018000000000000002, 0.998, 192.0, 0.0, 0.0, 0.0, 0.0, 0.0, 0.0, 0.0, 0.0, 0.0, 1.694681661281136E9, 0.0, 2023-09-14 10:54:21.281
81.0, -14.953317040600425, 187500.0, 187500.0, 187500.0, 187500.0, 187500.0, 187500.0, 187500.0, 0.04, -0.018000000000000002, 0.998, 192.0, 0.0, 0.0, 0.0, 0.0, 0.0, 0.0, 0.0, 0.0, 0.0, 1.694681661281168E9, 0.0, 2023-09-14 10:54:21.281
82.0, -10.527671638449627, 187500.0, 187500.0, 187500.0, 187500.0, 187500.0, 187500.0, 187500.0, 0.04, -0.018000000000000002, 0.998, 192.0, 0.0, 0.0, 0.0, 0.0, 0.0, 0.0, 0.0, 0.0, 0.0, 1.6946816612812152E9, 0.0, 2023-09-14 10:54:21.281
83.0, -10.482968149539012, 187500.0, 187500.0, 187500.0, 187500.0, 187500.0, 187500.0, 187500.0, 0.04, -0.018000000000000002, 0.998, 192.0, 0.0, 0.0, 0.0, 0.0, 0.0, 0.0, 0.0, 0.0, 0.0, 1.694681661281245E9, 0.0, 2023-09-14 10:54:21.281
84.0, -15.422703674161873, 187500.0, 187500.0, 187500.0, 187500.0, 187500.0, 187500.0, 187500.0, 0.04, -0.018000000000000002, 0.998, 192.0, 0.0, 0.0, 0.0, 0.0, 0.0, 0.0, 0.0, 0.0, 0.0, 1.6946816612812705E9, 0.0, 2023-09-14 10:54:21.281
85.0, -34.33227948335165, 187500.0, 187500.0, 187500.0, 187500.0, 187500.0, 187500.0, 187500.0, 0.04, -0.018000000000000002, 0.998, 192.0, 0.0, 0.0, 0.0, 0.0, 0.0, 0.0, 0.0, 0.0, 0.0, 1.6946816612812948E9, 0.0, 2023-09-14 10:54:21.281
86.0, -38.86968360777898, 187500.0, 187500.0, 187500.0, 187500.0, 187500.0, 187500.0, 187500.0, 0.04, -0.018000000000000002, 0.998, 192.0, 0.0, 0.0, 0.0, 0.0, 0.0, 0.0, 0.0, 0.0, 0.0, 1.694681661281319E9, 0.0, 2023-09-14 10:54:21.281
87.0, -39.02614581896613, 187500.0, 187500.0, 187500.0, 187500.0, 187500.0, 187500.0, 187500.0, 0.036000000000000004, -0.02, 1.0, 192.0, 1.0, 32.0, 255.0, 96.0, 31.0, 64.0, 0.0, 0.0, 0.0, 1.6946816612813432E9, 0.0, 2023-09-14 10:54:21.281
88.0, -34.220520761075115, 187500.0, 187500.0, 187500.0, 187500.0, 187500.0, 187500.0, 187500.0, 0.036000000000000004, -0.02, 1.0, 192.0, 0.0, 0.0, 0.0, 0.0, 0.0, 0.0, 0.0, 0.0, 0.0, 1.6946816612813685E9, 0.0, 2023-09-14 10:54:21.281
89.0, -14.841558318323889, 187500.0, 187500.0, 187500.0, 187500.0, 187500.0, 187500.0, 187500.0, 0.036000000000000004, -0.02, 1.0, 192.0, 0.0, 0.0, 0.0, 0.0, 0.0, 0.0, 0.0, 0.0, 0.0, 1.6946816612813928E9, 0.0, 2023-09-14 10:54:21.281
90.0, -10.080636749343485, 187500.0, 187500.0, 187500.0, 187500.0, 187500.0, 187500.0, 187500.0, 0.036000000000000004, -0.02, 1.0, 192.0, 0.0, 0.0, 0.0, 0.0, 0.0, 0.0, 0.0, 0.0, 0.0, 1.694681661281418E9, 0.0, 2023-09-14 10:54:21.281
91.0, -10.080636749343485, 187500.0, 187500.0, 187500.0, 187500.0, 187500.0, 187500.0, 187500.0, 0.036000000000000004, -0.02, 1.0, 192.0, 0.0, 0.0, 0.0, 0.0, 0.0, 0.0, 0.0, 0.0, 0.0, 1.6946816612814424E9, 0.0, 2023-09-14 10:54:21.281
92.0, -15.176834485153496, 187500.0, 187500.0, 187500.0, 187500.0, 187500.0, 187500.0, 187500.0, 0.036000000000000004, -0.02, 1.0, 192.0, 0.0, 0.0, 0.0, 0.0, 0.0, 0.0, 0.0, 0.0, 0.0, 1.6946816612814665E9, 0.0, 2023-09-14 10:54:21.281
93.0, -34.421686461172875, 187500.0, 187500.0, 187500.0, 187500.0, 187500.0, 187500.0, 187500.0, 0.036000000000000004, -0.02, 1.0, 192.0, 0.0, 0.0, 0.0, 0.0, 0.0, 0.0, 0.0, 0.0, 0.0, 1.6946816612816167E9, 0.0, 2023-09-14 10:54:21.281
94.0, -38.6014626743153, 187500.0, 187500.0, 187500.0, 187500.0, 187500.0, 187500.0, 187500.0, 0.036000000000000004, -0.02, 1.0, 192.0, 0.0, 0.0, 0.0, 0.0, 0.0, 0.0, 0.0, 0.0, 0.0, 1.6946816612816415E9, 0.0, 2023-09-14 10:54:21.281
95.0, -38.512055696494066, 187500.0, 187500.0, 187500.0, 187500.0, 187500.0, 187500.0, 187500.0, 0.036000000000000004, -0.02, 1.0, 192.0, 0.0, 0.0, 0.0, 0.0, 0.0, 0.0, 0.0, 0.0, 0.0, 1.694681661281666E9, 0.0, 2023-09-14 10:54:21.281
96.0, -33.59467191632652, 187500.0, 187500.0, 187500.0, 187500.0, 187500.0, 187500.0, 187500.0, 0.036000000000000004, -0.02, 1.0, 192.0, 0.0, 0.0, 0.0, 0.0, 0.0, 0.0, 0.0, 0.0, 0.0, 1.69468166128169E9, 0.0, 2023-09-14 10:54:21.281
97.0, -15.199186229608802, 187500.0, 187500.0, 187500.0, 187500.0, 187500.0, 187500.0, 187500.0, 0.032, -0.024, 0.998, 192.0, 1.0, 0.0, 255.0, 64.0, 31.0, 48.0, 0.0, 0.0, 0.0, 1.6946816612817144E9, 0.0, 2023-09-14 10:54:21.281
98.0, -10.438264660628398, 187500.0, 187500.0, 187500.0, 187500.0, 187500.0, 187500.0, 187500.0, 0.032, -0.024, 0.998, 192.0, 0.0, 0.0, 0.0, 0.0, 0.0, 0.0, 0.0, 0.0, 0.0, 1.6946816612817404E9, 0.0, 2023-09-14 10:54:21.281
99.0, -10.527671638449627, 187500.0, 187500.0, 187500.0, 187500.0, 187500.0, 187500.0, 187500.0, 0.032, -0.024, 0.998, 192.0, 0.0, 0.0, 0.0, 0.0, 0.0, 0.0, 0.0, 0.0, 0.0, 1.6946816612817645E9, 0.0, 2023-09-14 10:54:21.281
100.0, -15.512110651983102, 187500.0, 187500.0, 187500.0, 187500.0, 187500.0, 187500.0, 187500.0, 0.032, -0.024, 0.998, 192.0, 0.0, 0.0, 0.0, 0.0, 0.0, 0.0, 0.0, 0.0, 0.0, 1.6946816612817886E9, 0.0, 2023-09-14 10:54:21.281
101.0, -34.1758172721645, 187500.0, 187500.0, 187500.0, 187500.0, 187500.0, 187500.0, 187500.0, 0.032, -0.024, 0.998, 192.0, 0.0, 0.0, 0.0, 0.0, 0.0, 0.0, 0.0, 0.0, 0.0, 1.6946816612818131E9, 0.0, 2023-09-14 10:54:21.281
102.0, -38.57911092985999, 187500.0, 187500.0, 187500.0, 187500.0, 187500.0, 187500.0, 187500.0, 0.032, -0.024, 0.998, 192.0, 0.0, 0.0, 0.0, 0.0, 0.0, 0.0, 0.0, 0.0, 0.0, 1.6946816612818916E9, 0.0, 2023-09-14 10:54:21.281
103.0, -38.57911092985999, 187500.0, 187500.0, 187500.0, 187500.0, 187500.0, 187500.0, 187500.0, 0.032, -0.024, 0.998, 192.0, 0.0, 0.0, 0.0, 0.0, 0.0, 0.0, 0.0, 0.0, 0.0, 1.694681661281917E9, 0.0, 2023-09-14 10:54:21.281
104.0, -33.63937540523713, 187500.0, 187500.0, 187500.0, 187500.0, 187500.0, 187500.0, 187500.0, 0.032, -0.024, 0.998, 192.0, 0.0, 0.0, 0.0, 0.0, 0.0, 0.0, 0.0, 0.0, 0.0, 1.694681661281942E9, 0.0, 2023-09-14 10:54:21.281
105.0, -14.61804087377082, 187500.0, 187500.0, 187500.0, 187500.0, 187500.0, 187500.0, 187500.0, 0.032, -0.024, 0.998, 192.0, 0.0, 0.0, 0.0, 0.0, 0.0, 0.0, 0.0, 0.0, 0.0, 1.694681661281968E9, 0.0, 2023-09-14 10:54:21.281
106.0, -10.639430360726163, 187500.0, 187500.0, 187500.0, 187500.0, 187500.0, 187500.0, 187500.0, 0.032, -0.024, 0.998, 192.0, 0.0, 0.0, 0.0, 0.0, 0.0, 0.0, 0.0, 0.0, 0.0, 1.6946816612819939E9, 0.0, 2023-09-14 10:54:21.281
107.0, -10.57237512736024, 187500.0, 187500.0, 187500.0, 187500.0, 187500.0, 187500.0, 187500.0, 0.032, -0.026000000000000002, 1.012, 192.0, 1.0, 0.0, 255.0, 48.0, 31.0, 160.0, 0.0, 0.0, 0.0, 1.6946816612820196E9, 0.0, 2023-09-14 10:54:21.282
108.0, -15.601517629804329, 187500.0, 187500.0, 187500.0, 187500.0, 187500.0, 187500.0, 187500.0, 0.032, -0.026000000000000002, 1.012, 192.0, 0.0, 0.0, 0.0, 0.0, 0.0, 0.0, 0.0, 0.0, 0.0, 1.6946816612822552E9, 0.0, 2023-09-14 10:54:21.282
109.0, -34.30992773889634, 187500.0, 187500.0, 187500.0, 187500.0, 187500.0, 187500.0, 187500.0, 0.032, -0.026000000000000002, 1.012, 192.0, 0.0, 0.0, 0.0, 0.0, 0.0, 0.0, 0.0, 0.0, 0.0, 1.6946816612822983E9, 0.0, 2023-09-14 10:54:21.282
110.0, -38.57911092985999, 187500.0, 187500.0, 187500.0, 187500.0, 187500.0, 187500.0, 187500.0, 0.032, -0.026000000000000002, 1.012, 192.0, 0.0, 0.0, 0.0, 0.0, 0.0, 0.0, 0.0, 0.0, 0.0, 1.6946816612823367E9, 0.0, 2023-09-14 10:54:21.282
111.0, -38.6014626743153, 187500.0, 187500.0, 187500.0, 187500.0, 187500.0, 187500.0, 187500.0, 0.032, -0.026000000000000002, 1.012, 192.0, 0.0, 0.0, 0.0, 0.0, 0.0, 0.0, 0.0, 0.0, 0.0, 1.694681661282375E9, 0.0, 2023-09-14 10:54:21.282
112.0, -33.617023660781825, 187500.0, 187500.0, 187500.0, 187500.0, 187500.0, 187500.0, 187500.0, 0.032, -0.026000000000000002, 1.012, 192.0, 0.0, 0.0, 0.0, 0.0, 0.0, 0.0, 0.0, 0.0, 0.0, 1.6946816612824144E9, 0.0, 2023-09-14 10:54:21.282
113.0, -15.109779251787574, 187500.0, 187500.0, 187500.0, 187500.0, 187500.0, 187500.0, 187500.0, 0.032, -0.026000000000000002, 1.012, 192.0, 0.0, 0.0, 0.0, 0.0, 0.0, 0.0, 0.0, 0.0, 0.0, 1.6946816612824535E9, 0.0, 2023-09-14 10:54:21.282
114.0, -10.438264660628398, 187500.0, 187500.0, 187500.0, 187500.0, 187500.0, 187500.0, 187500.0, 0.032, -0.026000000000000002, 1.012, 192.0, 0.0, 0.0, 0.0, 0.0, 0.0, 0.0, 0.0, 0.0, 0.0, 1.6946816612824943E9, 0.0, 2023-09-14 10:54:21.282
115.0, -9.90182279370103, 187500.0, 187500.0, 187500.0, 187500.0, 187500.0, 187500.0, 187500.0, 0.032, -0.026000000000000002, 1.012, 192.0, 0.0, 0.0, 0.0, 0.0, 0.0, 0.0, 0.0, 0.0, 0.0, 1.6946816612825406E9, 0.0, 2023-09-14 10:54:21.282
116.0, -15.512110651983102, 187500.0, 187500.0, 187500.0, 187500.0, 187500.0, 187500.0, 187500.0, 0.032, -0.026000000000000002, 1.012, 192.0, 0.0, 0.0, 0.0, 0.0, 0.0, 0.0, 0.0, 0.0, 0.0, 1.6946816612825875E9, 0.0, 2023-09-14 10:54:21.282
117.0, -34.44403820562818, 187500.0, 187500.0, 187500.0, 187500.0, 187500.0, 187500.0, 187500.0, 0.034, -0.022, 1.01, 192.0, 1.0, 16.0, 255.0, 80.0, 31.0, 144.0, 0.0, 0.0, 0.0, 1.6946816612826302E9, 0.0, 2023-09-14 10:54:21.282
118.0, -38.377945229762226, 187500.0, 187500.0, 187500.0, 187500.0, 187500.0, 187500.0, 187500.0, 0.034, -0.022, 1.01, 192.0, 0.0, 0.0, 0.0, 0.0, 0.0, 0.0, 0.0, 0.0, 0.0, 1.6946816612826743E9, 0.0, 2023-09-14 10:54:21.282
119.0, -38.69086965213653, 187500.0, 187500.0, 187500.0, 187500.0, 187500.0, 187500.0, 187500.0, 0.034, -0.022, 1.01, 192.0, 0.0, 0.0, 0.0, 0.0, 0.0, 0.0, 0.0, 0.0, 0.0, 1.69468166128272E9, 0.0, 2023-09-14 10:54:21.282
120.0, -33.99700331652204, 187500.0, 187500.0, 187500.0, 187500.0, 187500.0, 187500.0, 187500.0, 0.034, -0.022, 1.01, 192.0, 0.0, 0.0, 0.0, 0.0, 0.0, 0.0, 0.0, 0.0, 0.0, 1.6946816612827628E9, 0.0, 2023-09-14 10:54:21.282
121.0, -14.99802052951104, 187500.0, 187500.0, 187500.0, 187500.0, 187500.0, 187500.0, 187500.0, 0.034, -0.022, 1.01, 192.0, 0.0, 0.0, 0.0, 0.0, 0.0, 0.0, 0.0, 0.0, 0.0, 1.6946816617413676E9, 0.0, 2023-09-14 10:54:21.741
122.0, -10.304154193896556, 187500.0, 187500.0, 187500.0, 187500.0, 187500.0, 187500.0, 187500.0, 0.034, -0.022, 1.01, 192.0, 0.0, 0.0, 0.0, 0.0, 0.0, 0.0, 0.0, 0.0, 0.0, 1.6946816617414925E9, 0.0, 2023-09-14 10:54:21.741
123.0, -10.438264660628398, 187500.0, 187500.0, 187500.0, 187500.0, 187500.0, 187500.0, 187500.0, 0.034, -0.022, 1.01, 192.0, 0.0, 0.0, 0.0, 0.0, 0.0, 0.0, 0.0, 0.0, 0.0, 1.6946816617416587E9, 0.0, 2023-09-14 10:54:21.741
124.0, -15.109779251787574, 187500.0, 187500.0, 187500.0, 187500.0, 187500.0, 187500.0, 187500.0, 0.034, -0.022, 1.01, 192.0, 0.0, 0.0, 0.0, 0.0, 0.0, 0.0, 0.0, 0.0, 0.0, 1.6946816617417023E9, 0.0, 2023-09-14 10:54:21.741
125.0, -34.153465527709194, 187500.0, 187500.0, 187500.0, 187500.0, 187500.0, 187500.0, 187500.0, 0.034, -0.022, 1.01, 192.0, 0.0, 0.0, 0.0, 0.0, 0.0, 0.0, 0.0, 0.0, 0.0, 1.6946816617417505E9, 0.0, 2023-09-14 10:54:21.741
126.0, -38.40029697421753, 187500.0, 187500.0, 187500.0, 187500.0, 187500.0, 187500.0, 187500.0, 0.026000000000000002, -0.024, 1.006, 192.0, 0.0, 208.0, 255.0, 64.0, 31.0, 112.0, 0.0, 0.0, 0.0, 1.6946816617417924E9, 0.0, 2023-09-14 10:54:21.741
127.0, -38.69086965213653, 187500.0, 187500.0, 187500.0, 187500.0, 187500.0, 187500.0, 187500.0, 0.026000000000000002, -0.024, 1.006, 192.0, 0.0, 0.0, 0.0, 0.0, 0.0, 0.0, 0.0, 0.0, 0.0, 1.6946816617418356E9, 0.0, 2023-09-14 10:54:21.741
128.0, -33.99700331652204, 187500.0, 187500.0, 187500.0, 187500.0, 187500.0, 187500.0, 187500.0, 0.026000000000000002, -0.024, 1.006, 192.0, 0.0, 0.0, 0.0, 0.0, 0.0, 0.0, 0.0, 0.0, 0.0, 1.6946816617418792E9, 0.0, 2023-09-14 10:54:21.741
129.0, -14.819206573868582, 187500.0, 187500.0, 187500.0, 187500.0, 187500.0, 187500.0, 187500.0, 0.026000000000000002, -0.024, 1.006, 192.0, 0.0, 0.0, 0.0, 0.0, 0.0, 0.0, 0.0, 0.0, 0.0, 1.6946816617419212E9, 0.0, 2023-09-14 10:54:21.741
130.0, -10.326505938351863, 187500.0, 187500.0, 187500.0, 187500.0, 187500.0, 187500.0, 187500.0, 0.026000000000000002, -0.024, 1.006, 192.0, 0.0, 0.0, 0.0, 0.0, 0.0, 0.0, 0.0, 0.0, 0.0, 1.6946816617419636E9, 0.0, 2023-09-14 10:54:21.741
131.0, -10.259450704985941, 187500.0, 187500.0, 187500.0, 187500.0, 187500.0, 187500.0, 187500.0, 0.026000000000000002, -0.024, 1.006, 192.0, 0.0, 0.0, 0.0, 0.0, 0.0, 0.0, 0.0, 0.0, 0.0, 1.694681661742006E9, 0.0, 2023-09-14 10:54:21.742
132.0, -15.333296696340645, 187500.0, 187500.0, 187500.0, 187500.0, 187500.0, 187500.0, 187500.0, 0.026000000000000002, -0.024, 1.006, 192.0, 0.0, 0.0, 0.0, 0.0, 0.0, 0.0, 0.0, 0.0, 0.0, 1.6946816617420487E9, 0.0, 2023-09-14 10:54:21.742
133.0, -34.13111378325389, 187500.0, 187500.0, 187500.0, 187500.0, 187500.0, 187500.0, 187500.0, 0.026000000000000002, -0.024, 1.006, 192.0, 0.0, 0.0, 0.0, 0.0, 0.0, 0.0, 0.0, 0.0, 0.0, 1.694681661742092E9, 0.0, 2023-09-14 10:54:21.742
134.0, -38.42264871867284, 187500.0, 187500.0, 187500.0, 187500.0, 187500.0, 187500.0, 187500.0, 0.026000000000000002, -0.024, 1.006, 192.0, 0.0, 0.0, 0.0, 0.0, 0.0, 0.0, 0.0, 0.0, 0.0, 1.6946816617421353E9, 0.0, 2023-09-14 10:54:21.742
135.0, -38.35559348530692, 187500.0, 187500.0, 187500.0, 187500.0, 187500.0, 187500.0, 187500.0, 0.026000000000000002, -0.024, 1.006, 192.0, 0.0, 0.0, 0.0, 0.0, 0.0, 0.0, 0.0, 0.0, 0.0, 1.6946816617421775E9, 0.0, 2023-09-14 10:54:21.742
136.0, -33.41585796068406, 187500.0, 187500.0, 187500.0, 187500.0, 187500.0, 187500.0, 187500.0, 0.03, -0.024, 1.006, 192.0, 0.0, 240.0, 255.0, 64.0, 31.0, 112.0, 0.0, 0.0, 0.0, 1.6946816617422273E9, 0.0, 2023-09-14 10:54:21.742
137.0, -14.774503084957969, 187500.0, 187500.0, 187500.0, 187500.0, 187500.0, 187500.0, 187500.0, 0.03, -0.024, 1.006, 192.0, 0.0, 0.0, 0.0, 0.0, 0.0, 0.0, 0.0, 0.0, 0.0, 1.6946816617422693E9, 0.0, 2023-09-14 10:54:21.742
138.0, -10.505319893994319, 187500.0, 187500.0, 187500.0, 187500.0, 187500.0, 187500.0, 187500.0, 0.03, -0.024, 1.006, 192.0, 0.0, 0.0, 0.0, 0.0, 0.0, 0.0, 0.0, 0.0, 0.0, 1.6946816617423167E9, 0.0, 2023-09-14 10:54:21.742
139.0, -10.550023382904934, 187500.0, 187500.0, 187500.0, 187500.0, 187500.0, 187500.0, 187500.0, 0.03, -0.024, 1.006, 192.0, 0.0, 0.0, 0.0, 0.0, 0.0, 0.0, 0.0, 0.0, 0.0, 1.6946816617424157E9, 0.0, 2023-09-14 10:54:21.742
140.0, -15.534462396438409, 187500.0, 187500.0, 187500.0, 187500.0, 187500.0, 187500.0, 187500.0, 0.03, -0.024, 1.006, 192.0, 0.0, 0.0, 0.0, 0.0, 0.0, 0.0, 0.0, 0.0, 0.0, 1.69468166174246E9, 0.0, 2023-09-14 10:54:21.742
141.0, -34.287575994441035, 187500.0, 187500.0, 187500.0, 187500.0, 187500.0, 187500.0, 187500.0, 0.03, -0.024, 1.006, 192.0, 0.0, 0.0, 0.0, 0.0, 0.0, 0.0, 0.0, 0.0, 0.0, 1.6946816617425053E9, 0.0, 2023-09-14 10:54:21.742
142.0, -38.914387096689595, 187500.0, 187500.0, 187500.0, 187500.0, 187500.0, 187500.0, 187500.0, 0.03, -0.024, 1.006, 192.0, 0.0, 0.0, 0.0, 0.0, 0.0, 0.0, 0.0, 0.0, 0.0, 1.694681661742551E9, 0.0, 2023-09-14 10:54:21.742
143.0, -38.69086965213653, 187500.0, 187500.0, 187500.0, 187500.0, 187500.0, 187500.0, 187500.0, 0.03, -0.024, 1.006, 192.0, 0.0, 0.0, 0.0, 0.0, 0.0, 0.0, 0.0, 0.0, 0.0, 1.6946816617425969E9, 0.0, 2023-09-14 10:54:21.742
144.0, -33.77348587196897, 187500.0, 187500.0, 187500.0, 187500.0, 187500.0, 187500.0, 187500.0, 0.03, -0.024, 1.006, 192.0, 0.0, 0.0, 0.0, 0.0, 0.0, 0.0, 0.0, 0.0, 0.0, 1.6946816617426383E9, 0.0, 2023-09-14 10:54:21.742
145.0, -14.707447851592047, 187500.0, 187500.0, 187500.0, 187500.0, 187500.0, 187500.0, 187500.0, 0.03, -0.024, 1.006, 192.0, 0.0, 0.0, 0.0, 0.0, 0.0, 0.0, 0.0, 0.0, 0.0, 1.6946816617426813E9, 0.0, 2023-09-14 10:54:21.742
146.0, -10.639430360726163, 187500.0, 187500.0, 187500.0, 187500.0, 187500.0, 187500.0, 187500.0, 0.032, -0.028, 1.002, 192.0, 1.0, 0.0, 255.0, 32.0, 31.0, 80.0, 0.0, 0.0, 0.0, 1.6946816617427242E9, 0.0, 2023-09-14 10:54:21.742
147.0, -10.594726871815547, 187500.0, 187500.0, 187500.0, 187500.0, 187500.0, 187500.0, 187500.0, 0.032, -0.028, 1.002, 192.0, 0.0, 0.0, 0.0, 0.0, 0.0, 0.0, 0.0, 0.0, 0.0, 1.6946816617427697E9, 0.0, 2023-09-14 10:54:21.742
148.0, -15.176834485153496, 187500.0, 187500.0, 187500.0, 187500.0, 187500.0, 187500.0, 187500.0, 0.032, -0.028, 1.002, 192.0, 0.0, 0.0, 0.0, 0.0, 0.0, 0.0, 0.0, 0.0, 0.0, 1.694681661742808E9, 0.0, 2023-09-14 10:54:21.742
149.0, -34.220520761075115, 187500.0, 187500.0, 187500.0, 187500.0, 187500.0, 187500.0, 187500.0, 0.032, -0.028, 1.002, 192.0, 0.0, 0.0, 0.0, 0.0, 0.0, 0.0, 0.0, 0.0, 0.0, 1.694681661742846E9, 0.0, 2023-09-14 10:54:21.742
150.0, -38.713221396591834, 187500.0, 187500.0, 187500.0, 187500.0, 187500.0, 187500.0, 187500.0, 0.032, -0.028, 1.002, 192.0, 0.0, 0.0, 0.0, 0.0, 0.0, 0.0, 0.0, 0.0, 0.0, 1.6946816617428887E9, 0.0, 2023-09-14 10:54:21.742
151.0, -39.18260803015328, 187500.0, 187500.0, 187500.0, 187500.0, 187500.0, 187500.0, 187500.0, 0.032, -0.028, 1.002, 192.0, 0.0, 0.0, 0.0, 0.0, 0.0, 0.0, 0.0, 0.0, 0.0, 1.6946816617429304E9, 0.0, 2023-09-14 10:54:21.742
152.0, -33.72878238305836, 187500.0, 187500.0, 187500.0, 187500.0, 187500.0, 187500.0, 187500.0, 0.032, -0.028, 1.002, 192.0, 0.0, 0.0, 0.0, 0.0, 0.0, 0.0, 0.0, 0.0, 0.0, 1.694681661742973E9, 0.0, 2023-09-14 10:54:21.742
153.0, -14.841558318323889, 187500.0, 187500.0, 187500.0, 187500.0, 187500.0, 187500.0, 187500.0, 0.032, -0.028, 1.002, 192.0, 0.0, 0.0, 0.0, 0.0, 0.0, 0.0, 0.0, 0.0, 0.0, 1.6946816617430184E9, 0.0, 2023-09-14 10:54:21.743
154.0, -10.125340238254099, 187500.0, 187500.0, 187500.0, 187500.0, 187500.0, 187500.0, 187500.0, 0.032, -0.028, 1.002, 192.0, 0.0, 0.0, 0.0, 0.0, 0.0, 0.0, 0.0, 0.0, 0.0, 1.6946816617431219E9, 0.0, 2023-09-14 10:54:21.743
155.0, -10.102988493798792, 187500.0, 187500.0, 187500.0, 187500.0, 187500.0, 187500.0, 187500.0, 0.032, -0.028, 1.002, 192.0, 0.0, 0.0, 0.0, 0.0, 0.0, 0.0, 0.0, 0.0, 0.0, 1.6946816617431664E9, 0.0, 2023-09-14 10:54:21.743
156.0, -15.333296696340645, 187500.0, 187500.0, 187500.0, 187500.0, 187500.0, 187500.0, 187500.0, 0.034, -0.03, 1.002, 192.0, 1.0, 16.0, 255.0, 16.0, 31.0, 80.0, 0.0, 0.0, 0.0, 1.6946816617431989E9, 0.0, 2023-09-14 10:54:21.743
157.0, -34.287575994441035, 187500.0, 187500.0, 187500.0, 187500.0, 187500.0, 187500.0, 187500.0, 0.034, -0.03, 1.002, 192.0, 0.0, 0.0, 0.0, 0.0, 0.0, 0.0, 0.0, 0.0, 0.0, 1.694681661743226E9, 0.0, 2023-09-14 10:54:21.743
158.0, -38.69086965213653, 187500.0, 187500.0, 187500.0, 187500.0, 187500.0, 187500.0, 187500.0, 0.034, -0.03, 1.002, 192.0, 0.0, 0.0, 0.0, 0.0, 0.0, 0.0, 0.0, 0.0, 0.0, 1.694681661743251E9, 0.0, 2023-09-14 10:54:21.743
159.0, -38.75792488550245, 187500.0, 187500.0, 187500.0, 187500.0, 187500.0, 187500.0, 187500.0, 0.034, -0.03, 1.002, 192.0, 0.0, 0.0, 0.0, 0.0, 0.0, 0.0, 0.0, 0.0, 0.0, 1.6946816617432797E9, 0.0, 2023-09-14 10:54:21.743
160.0, -33.34880272731814, 187500.0, 187500.0, 187500.0, 187500.0, 187500.0, 187500.0, 187500.0, 0.034, -0.03, 1.002, 192.0, 0.0, 0.0, 0.0, 0.0, 0.0, 0.0, 0.0, 0.0, 0.0, 1.694681661743346E9, 0.0, 2023-09-14 10:54:21.743
161.0, -15.176834485153496, 187500.0, 187500.0, 187500.0, 187500.0, 187500.0, 187500.0, 187500.0, 0.034, -0.03, 1.002, 192.0, 0.0, 0.0, 0.0, 0.0, 0.0, 0.0, 0.0, 0.0, 0.0, 1.6946816617433913E9, 0.0, 2023-09-14 10:54:21.743
162.0, -10.997058272011074, 187500.0, 187500.0, 187500.0, 187500.0, 187500.0, 187500.0, 187500.0, 0.034, -0.03, 1.002, 192.0, 0.0, 0.0, 0.0, 0.0, 0.0, 0.0, 0.0, 0.0, 0.0, 1.6946816617434323E9, 0.0, 2023-09-14 10:54:21.743
163.0, -10.371209427262476, 187500.0, 187500.0, 187500.0, 187500.0, 187500.0, 187500.0, 187500.0, 0.034, -0.03, 1.002, 192.0, 0.0, 0.0, 0.0, 0.0, 0.0, 0.0, 0.0, 0.0, 0.0, 1.6946816617434733E9, 0.0, 2023-09-14 10:54:21.743
164.0, -15.579165885349022, 187500.0, 187500.0, 187500.0, 187500.0, 187500.0, 187500.0, 187500.0, 0.034, -0.03, 1.002, 192.0, 0.0, 0.0, 0.0, 0.0, 0.0, 0.0, 0.0, 0.0, 0.0, 1.6946816617435167E9, 0.0, 2023-09-14 10:54:21.743
165.0, -34.19816901661981, 187500.0, 187500.0, 187500.0, 187500.0, 187500.0, 187500.0, 187500.0, 0.034, -0.03, 1.002, 192.0, 0.0, 0.0, 0.0, 0.0, 0.0, 0.0, 0.0, 0.0, 0.0, 1.6946816617435603E9, 0.0, 2023-09-14 10:54:21.743
166.0, -38.713221396591834, 187500.0, 187500.0, 187500.0, 187500.0, 187500.0, 187500.0, 187500.0, 0.028, -0.02, 1.004, 192.0, 0.0, 224.0, 255.0, 96.0, 31.0, 96.0, 0.0, 0.0, 0.0, 1.6946816617436063E9, 0.0, 2023-09-14 10:54:21.743
167.0, -38.86968360777898, 187500.0, 187500.0, 187500.0, 187500.0, 187500.0, 187500.0, 187500.0, 0.028, -0.02, 1.004, 192.0, 0.0, 0.0, 0.0, 0.0, 0.0, 0.0, 0.0, 0.0, 0.0, 1.6946816617436526E9, 0.0, 2023-09-14 10:54:21.743
168.0, -33.885244594245506, 187500.0, 187500.0, 187500.0, 187500.0, 187500.0, 187500.0, 187500.0, 0.028, -0.02, 1.004, 192.0, 0.0, 0.0, 0.0, 0.0, 0.0, 0.0, 0.0, 0.0, 0.0, 1.6946816617436934E9, 0.0, 2023-09-14 10:54:21.743
169.0, -14.662744362681433, 187500.0, 187500.0, 187500.0, 187500.0, 187500.0, 187500.0, 187500.0, 0.028, -0.02, 1.004, 192.0, 0.0, 0.0, 0.0, 0.0, 0.0, 0.0, 0.0, 0.0, 0.0, 1.6946816617438028E9, 0.0, 2023-09-14 10:54:21.743
170.0, -10.259450704985941, 187500.0, 187500.0, 187500.0, 187500.0, 187500.0, 187500.0, 187500.0, 0.028, -0.02, 1.004, 192.0, 0.0, 0.0, 0.0, 0.0, 0.0, 0.0, 0.0, 0.0, 0.0, 1.6946816617438488E9, 0.0, 2023-09-14 10:54:21.743
171.0, -10.438264660628398, 187500.0, 187500.0, 187500.0, 187500.0, 187500.0, 187500.0, 187500.0, 0.028, -0.02, 1.004, 192.0, 0.0, 0.0, 0.0, 0.0, 0.0, 0.0, 0.0, 0.0, 0.0, 1.6946816617438946E9, 0.0, 2023-09-14 10:54:21.743
172.0, -15.467407163072487, 187500.0, 187500.0, 187500.0, 187500.0, 187500.0, 187500.0, 187500.0, 0.028, -0.02, 1.004, 192.0, 0.0, 0.0, 0.0, 0.0, 0.0, 0.0, 0.0, 0.0, 0.0, 1.6946816617439399E9, 0.0, 2023-09-14 10:54:21.743
173.0, -34.39933471671757, 187500.0, 187500.0, 187500.0, 187500.0, 187500.0, 187500.0, 187500.0, 0.028, -0.02, 1.004, 192.0, 0.0, 0.0, 0.0, 0.0, 0.0, 0.0, 0.0, 0.0, 0.0, 1.6946816617439842E9, 0.0, 2023-09-14 10:54:21.743
174.0, -38.377945229762226, 187500.0, 187500.0, 187500.0, 187500.0, 187500.0, 187500.0, 187500.0, 0.028, -0.02, 1.004, 192.0, 0.0, 0.0, 0.0, 0.0, 0.0, 0.0, 0.0, 0.0, 0.0, 1.6946816617440295E9, 0.0, 2023-09-14 10:54:21.744
175.0, -38.780276629957754, 187500.0, 187500.0, 187500.0, 187500.0, 187500.0, 187500.0, 187500.0, 0.028, -0.02, 1.004, 192.0, 0.0, 0.0, 0.0, 0.0, 0.0, 0.0, 0.0, 0.0, 0.0, 1.694681661744083E9, 0.0, 2023-09-14 10:54:21.744
176.0, -33.751134127513666, 187500.0, 187500.0, 187500.0, 187500.0, 187500.0, 187500.0, 187500.0, 0.03, -0.018000000000000002, 1.002, 192.0, 0.0, 240.0, 255.0, 112.0, 31.0, 80.0, 0.0, 0.0, 0.0, 1.6946816617441223E9, 0.0, 2023-09-14 10:54:21.744
177.0, -15.020372273966347, 187500.0, 187500.0, 187500.0, 187500.0, 187500.0, 187500.0, 187500.0, 0.03, -0.018000000000000002, 1.002, 192.0, 0.0, 0.0, 0.0, 0.0, 0.0, 0.0, 0.0, 0.0, 0.0, 1.6946816617441657E9, 0.0, 2023-09-14 10:54:21.744
178.0, -10.304154193896556, 187500.0, 187500.0, 187500.0, 187500.0, 187500.0, 187500.0, 187500.0, 0.03, -0.018000000000000002, 1.002, 192.0, 0.0, 0.0, 0.0, 0.0, 0.0, 0.0, 0.0, 0.0, 0.0, 1.6946816617442079E9, 0.0, 2023-09-14 10:54:21.744
179.0, -10.371209427262476, 187500.0, 187500.0, 187500.0, 187500.0, 187500.0, 187500.0, 187500.0, 0.03, -0.018000000000000002, 1.002, 192.0, 0.0, 0.0, 0.0, 0.0, 0.0, 0.0, 0.0, 0.0, 0.0, 1.6946816617442544E9, 0.0, 2023-09-14 10:54:21.744
180.0, -15.512110651983102, 187500.0, 187500.0, 187500.0, 187500.0, 187500.0, 187500.0, 187500.0, 0.03, -0.018000000000000002, 1.002, 192.0, 0.0, 0.0, 0.0, 0.0, 0.0, 0.0, 0.0, 0.0, 0.0, 1.694681661744326E9, 0.0, 2023-09-14 10:54:21.744
181.0, -34.39933471671757, 187500.0, 187500.0, 187500.0, 187500.0, 187500.0, 187500.0, 187500.0, 0.03, -0.018000000000000002, 1.002, 192.0, 0.0, 0.0, 0.0, 0.0, 0.0, 0.0, 0.0, 0.0, 0.0, 1.6946816617443771E9, 0.0, 2023-09-14 10:54:21.744
182.0, -38.82498011886837, 187500.0, 187500.0, 187500.0, 187500.0, 187500.0, 187500.0, 187500.0, 0.03, -0.018000000000000002, 1.002, 192.0, 0.0, 0.0, 0.0, 0.0, 0.0, 0.0, 0.0, 0.0, 0.0, 1.6946816617444148E9, 0.0, 2023-09-14 10:54:21.744
183.0, -38.69086965213653, 187500.0, 187500.0, 187500.0, 187500.0, 187500.0, 187500.0, 187500.0, 0.03, -0.018000000000000002, 1.002, 192.0, 0.0, 0.0, 0.0, 0.0, 0.0, 0.0, 0.0, 0.0, 0.0, 1.6946816617444563E9, 0.0, 2023-09-14 10:54:21.744
184.0, -33.77348587196897, 187500.0, 187500.0, 187500.0, 187500.0, 187500.0, 187500.0, 187500.0, 0.03, -0.018000000000000002, 1.002, 192.0, 0.0, 0.0, 0.0, 0.0, 0.0, 0.0, 0.0, 0.0, 0.0, 1.6946816617445025E9, 0.0, 2023-09-14 10:54:21.744
185.0, -14.975668785055731, 187500.0, 187500.0, 187500.0, 187500.0, 187500.0, 187500.0, 187500.0, 0.03, -0.018000000000000002, 1.002, 192.0, 0.0, 0.0, 0.0, 0.0, 0.0, 0.0, 0.0, 0.0, 0.0, 1.6946816617446184E9, 0.0, 2023-09-14 10:54:21.744
186.0, -10.460616405083705, 187500.0, 187500.0, 187500.0, 187500.0, 187500.0, 187500.0, 187500.0, 0.034, -0.022, 1.004, 192.0, 1.0, 16.0, 255.0, 80.0, 31.0, 96.0, 0.0, 0.0, 0.0, 1.6946816617446659E9, 0.0, 2023-09-14 10:54:21.744
187.0, -10.415912916173092, 187500.0, 187500.0, 187500.0, 187500.0, 187500.0, 187500.0, 187500.0, 0.034, -0.022, 1.004, 192.0, 0.0, 0.0, 0.0, 0.0, 0.0, 0.0, 0.0, 0.0, 0.0, 1.6946816617447145E9, 0.0, 2023-09-14 10:54:21.744
188.0, -15.534462396438409, 187500.0, 187500.0, 187500.0, 187500.0, 187500.0, 187500.0, 187500.0, 0.034, -0.022, 1.004, 192.0, 0.0, 0.0, 0.0, 0.0, 0.0, 0.0, 0.0, 0.0, 0.0, 1.6946816617447605E9, 0.0, 2023-09-14 10:54:21.744
189.0, -34.354631227806955, 187500.0, 187500.0, 187500.0, 187500.0, 187500.0, 187500.0, 187500.0, 0.034, -0.022, 1.004, 192.0, 0.0, 0.0, 0.0, 0.0, 0.0, 0.0, 0.0, 0.0, 0.0, 1.6946816617448072E9, 0.0, 2023-09-14 10:54:21.744
190.0, -38.15442778520916, 187500.0, 187500.0, 187500.0, 187500.0, 187500.0, 187500.0, 187500.0, 0.034, -0.022, 1.004, 192.0, 0.0, 0.0, 0.0, 0.0, 0.0, 0.0, 0.0, 0.0, 0.0, 1.6946816617448535E9, 0.0, 2023-09-14 10:54:21.744
191.0, -38.57911092985999, 187500.0, 187500.0, 187500.0, 187500.0, 187500.0, 187500.0, 187500.0, 0.034, -0.022, 1.004, 192.0, 0.0, 0.0, 0.0, 0.0, 0.0, 0.0, 0.0, 0.0, 0.0, 1.6946816617448947E9, 0.0, 2023-09-14 10:54:21.744
192.0, -33.66172714969244, 187500.0, 187500.0, 187500.0, 187500.0, 187500.0, 187500.0, 187500.0, 0.034, -0.022, 1.004, 192.0, 0.0, 0.0, 0.0, 0.0, 0.0, 0.0, 0.0, 0.0, 0.0, 1.6946816617449346E9, 0.0, 2023-09-14 10:54:21.744
193.0, -14.841558318323889, 187500.0, 187500.0, 187500.0, 187500.0, 187500.0, 187500.0, 187500.0, 0.034, -0.022, 1.004, 192.0, 0.0, 0.0, 0.0, 0.0, 0.0, 0.0, 0.0, 0.0, 0.0, 1.6946816617449744E9, 0.0, 2023-09-14 10:54:21.744
194.0, -10.304154193896556, 187500.0, 187500.0, 187500.0, 187500.0, 187500.0, 187500.0, 187500.0, 0.034, -0.022, 1.004, 192.0, 0.0, 0.0, 0.0, 0.0, 0.0, 0.0, 0.0, 0.0, 0.0, 1.6946816617450244E9, 0.0, 2023-09-14 10:54:21.745
195.0, -10.706485594092083, 187500.0, 187500.0, 187500.0, 187500.0, 187500.0, 187500.0, 187500.0, 0.034, -0.022, 1.004, 192.0, 0.0, 0.0, 0.0, 0.0, 0.0, 0.0, 0.0, 0.0, 0.0, 1.6946816617450702E9, 0.0, 2023-09-14 10:54:21.745
196.0, -15.623869374259638, 187500.0, 187500.0, 187500.0, 187500.0, 187500.0, 187500.0, 187500.0, 0.038, -0.022, 1.004, 192.0, 1.0, 48.0, 255.0, 80.0, 31.0, 96.0, 0.0, 0.0, 0.0, 1.6946816617451138E9, 0.0, 2023-09-14 10:54:21.745
197.0, -34.46638995008349, 187500.0, 187500.0, 187500.0, 187500.0, 187500.0, 187500.0, 187500.0, 0.038, -0.022, 1.004, 192.0, 0.0, 0.0, 0.0, 0.0, 0.0, 0.0, 0.0, 0.0, 0.0, 1.6946816617451656E9, 0.0, 2023-09-14 10:54:21.745
198.0, -38.780276629957754, 187500.0, 187500.0, 187500.0, 187500.0, 187500.0, 187500.0, 187500.0, 0.038, -0.022, 1.004, 192.0, 0.0, 0.0, 0.0, 0.0, 0.0, 0.0, 0.0, 0.0, 0.0, 1.6946816617452083E9, 0.0, 2023-09-14 10:54:21.745
199.0, -38.55675918540468, 187500.0, 187500.0, 187500.0, 187500.0, 187500.0, 187500.0, 187500.0, 0.038, -0.022, 1.004, 192.0, 0.0, 0.0, 0.0, 0.0, 0.0, 0.0, 0.0, 0.0, 0.0, 1.694681661745253E9, 0.0, 2023-09-14 10:54:21.745
200.0, -33.46056144959467, 187500.0, 187500.0, 187500.0, 187500.0, 187500.0, 187500.0, 187500.0, 0.038, -0.022, 1.004, 192.0, 0.0, 0.0, 0.0, 0.0, 0.0, 0.0, 0.0, 0.0, 0.0, 1.6946816617453883E9, 0.0, 2023-09-14 10:54:21.745
201.0, -14.752151340502662, 187500.0, 187500.0, 187500.0, 187500.0, 187500.0, 187500.0, 187500.0, 0.038, -0.022, 1.004, 192.0, 0.0, 0.0, 0.0, 0.0, 0.0, 0.0, 0.0, 0.0, 0.0, 1.6946816617454336E9, 0.0, 2023-09-14 10:54:21.745
202.0, -10.371209427262476, 187500.0, 187500.0, 187500.0, 187500.0, 187500.0, 187500.0, 187500.0, 0.038, -0.022, 1.004, 192.0, 0.0, 0.0, 0.0, 0.0, 0.0, 0.0, 0.0, 0.0, 0.0, 1.694681661745479E9, 0.0, 2023-09-14 10:54:21.745
203.0, -10.326505938351863, 187500.0, 187500.0, 187500.0, 187500.0, 187500.0, 187500.0, 187500.0, 0.038, -0.022, 1.004, 192.0, 0.0, 0.0, 0.0, 0.0, 0.0, 0.0, 0.0, 0.0, 0.0, 1.6946816617455268E9, 0.0, 2023-09-14 10:54:21.745
204.0, -15.534462396438409, 187500.0, 187500.0, 187500.0, 187500.0, 187500.0, 187500.0, 187500.0, 0.038, -0.022, 1.004, 192.0, 0.0, 0.0, 0.0, 0.0, 0.0, 0.0, 0.0, 0.0, 0.0, 1.6946816617455812E9, 0.0, 2023-09-14 10:54:21.745
205.0, -34.33227948335165, 187500.0, 187500.0, 187500.0, 187500.0, 187500.0, 187500.0, 187500.0, 0.038, -0.022, 1.004, 192.0, 0.0, 0.0, 0.0, 0.0, 0.0, 0.0, 0.0, 0.0, 0.0, 1.694681661745639E9, 0.0, 2023-09-14 10:54:21.745
206.0, -38.86968360777898, 187500.0, 187500.0, 187500.0, 187500.0, 187500.0, 187500.0, 187500.0, 0.028, -0.024, 0.998, 192.0, 0.0, 224.0, 255.0, 64.0, 31.0, 48.0, 0.0, 0.0, 0.0, 1.6946816617456975E9, 0.0, 2023-09-14 10:54:21.745
207.0, -38.981442330055515, 187500.0, 187500.0, 187500.0, 187500.0, 187500.0, 187500.0, 187500.0, 0.028, -0.024, 0.998, 192.0, 0.0, 0.0, 0.0, 0.0, 0.0, 0.0, 0.0, 0.0, 0.0, 1.6946816617457695E9, 0.0, 2023-09-14 10:54:21.745
208.0, -33.818189360879586, 187500.0, 187500.0, 187500.0, 187500.0, 187500.0, 187500.0, 187500.0, 0.028, -0.024, 0.998, 192.0, 0.0, 0.0, 0.0, 0.0, 0.0, 0.0, 0.0, 0.0, 0.0, 1.6946816617458067E9, 0.0, 2023-09-14 10:54:21.745
209.0, -14.729799596047354, 187500.0, 187500.0, 187500.0, 187500.0, 187500.0, 187500.0, 187500.0, 0.028, -0.024, 0.998, 192.0, 0.0, 0.0, 0.0, 0.0, 0.0, 0.0, 0.0, 0.0, 0.0, 1.694681661745844E9, 0.0, 2023-09-14 10:54:21.745
210.0, -10.28180244944125, 187500.0, 187500.0, 187500.0, 187500.0, 187500.0, 187500.0, 187500.0, 0.028, -0.024, 0.998, 192.0, 0.0, 0.0, 0.0, 0.0, 0.0, 0.0, 0.0, 0.0, 0.0, 1.6946816617458696E9, 0.0, 2023-09-14 10:54:21.745
211.0, -10.326505938351863, 187500.0, 187500.0, 187500.0, 187500.0, 187500.0, 187500.0, 187500.0, 0.028, -0.024, 0.998, 192.0, 0.0, 0.0, 0.0, 0.0, 0.0, 0.0, 0.0, 0.0, 0.0, 1.6946816617458944E9, 0.0, 2023-09-14 10:54:21.745
212.0, -15.512110651983102, 187500.0, 187500.0, 187500.0, 187500.0, 187500.0, 187500.0, 187500.0, 0.028, -0.024, 0.998, 192.0, 0.0, 0.0, 0.0, 0.0, 0.0, 0.0, 0.0, 0.0, 0.0, 1.6946816617459214E9, 0.0, 2023-09-14 10:54:21.745
213.0, -34.354631227806955, 187500.0, 187500.0, 187500.0, 187500.0, 187500.0, 187500.0, 187500.0, 0.028, -0.024, 0.998, 192.0, 0.0, 0.0, 0.0, 0.0, 0.0, 0.0, 0.0, 0.0, 0.0, 1.694681661745956E9, 0.0, 2023-09-14 10:54:21.745
214.0, -38.646166163225914, 187500.0, 187500.0, 187500.0, 187500.0, 187500.0, 187500.0, 187500.0, 0.028, -0.024, 0.998, 192.0, 0.0, 0.0, 0.0, 0.0, 0.0, 0.0, 0.0, 0.0, 0.0, 1.694681661745981E9, 0.0, 2023-09-14 10:54:21.745
215.0, -38.48970395203876, 187500.0, 187500.0, 187500.0, 187500.0, 187500.0, 187500.0, 187500.0, 0.028, -0.024, 0.998, 192.0, 0.0, 0.0, 0.0, 0.0, 0.0, 0.0, 0.0, 0.0, 0.0, 1.6946816617460525E9, 0.0, 2023-09-14 10:54:21.746
216.0, -33.77348587196897, 187500.0, 187500.0, 187500.0, 187500.0, 187500.0, 187500.0, 187500.0, 0.032, -0.022, 1.004, 192.0, 1.0, 0.0, 255.0, 80.0, 31.0, 96.0, 0.0, 0.0, 0.0, 1.6946816617460778E9, 0.0, 2023-09-14 10:54:21.746
217.0, -15.355648440795951, 187500.0, 187500.0, 187500.0, 187500.0, 187500.0, 187500.0, 187500.0, 0.032, -0.022, 1.004, 192.0, 0.0, 0.0, 0.0, 0.0, 0.0, 0.0, 0.0, 0.0, 0.0, 1.6946816617461045E9, 0.0, 2023-09-14 10:54:21.746
218.0, -10.371209427262476, 187500.0, 187500.0, 187500.0, 187500.0, 187500.0, 187500.0, 187500.0, 0.032, -0.022, 1.004, 192.0, 0.0, 0.0, 0.0, 0.0, 0.0, 0.0, 0.0, 0.0, 0.0, 1.6946816617461295E9, 0.0, 2023-09-14 10:54:21.746
219.0, -10.393561171717785, 187500.0, 187500.0, 187500.0, 187500.0, 187500.0, 187500.0, 187500.0, 0.032, -0.022, 1.004, 192.0, 0.0, 0.0, 0.0, 0.0, 0.0, 0.0, 0.0, 0.0, 0.0, 1.6946816617461543E9, 0.0, 2023-09-14 10:54:21.746
220.0, -15.44505541861718, 187500.0, 187500.0, 187500.0, 187500.0, 187500.0, 187500.0, 187500.0, 0.032, -0.022, 1.004, 192.0, 0.0, 0.0, 0.0, 0.0, 0.0, 0.0, 0.0, 0.0, 0.0, 1.6946816617461793E9, 0.0, 2023-09-14 10:54:21.746
221.0, -34.220520761075115, 187500.0, 187500.0, 187500.0, 187500.0, 187500.0, 187500.0, 187500.0, 0.032, -0.022, 1.004, 192.0, 0.0, 0.0, 0.0, 0.0, 0.0, 0.0, 0.0, 0.0, 0.0, 1.6946816617462044E9, 0.0, 2023-09-14 10:54:21.746
222.0, -38.86968360777898, 187500.0, 187500.0, 187500.0, 187500.0, 187500.0, 187500.0, 187500.0, 0.032, -0.022, 1.004, 192.0, 0.0, 0.0, 0.0, 0.0, 0.0, 0.0, 0.0, 0.0, 0.0, 1.6946816617462292E9, 0.0, 2023-09-14 10:54:21.746
223.0, -38.9367388411449, 187500.0, 187500.0, 187500.0, 187500.0, 187500.0, 187500.0, 187500.0, 0.032, -0.022, 1.004, 192.0, 0.0, 0.0, 0.0, 0.0, 0.0, 0.0, 0.0, 0.0, 0.0, 1.6946816617462537E9, 0.0, 2023-09-14 10:54:21.746
224.0, -33.77348587196897, 187500.0, 187500.0, 187500.0, 187500.0, 187500.0, 187500.0, 187500.0, 0.032, -0.022, 1.004, 192.0, 0.0, 0.0, 0.0, 0.0, 0.0, 0.0, 0.0, 0.0, 0.0, 1.6946816617462783E9, 0.0, 2023-09-14 10:54:21.746
225.0, -14.886261807234504, 187500.0, 187500.0, 187500.0, 187500.0, 187500.0, 187500.0, 187500.0, 0.032, -0.022, 1.004, 192.0, 0.0, 0.0, 0.0, 0.0, 0.0, 0.0, 0.0, 0.0, 0.0, 1.6946816617463248E9, 0.0, 2023-09-14 10:54:21.746
226.0, -10.304154193896556, 187500.0, 187500.0, 187500.0, 187500.0, 187500.0, 187500.0, 187500.0, 0.032, -0.018000000000000002, 0.994, 192.0, 1.0, 0.0, 255.0, 112.0, 31.0, 16.0, 0.0, 0.0, 0.0, 1.6946816617463624E9, 0.0, 2023-09-14 10:54:21.746
227.0, -10.550023382904934, 187500.0, 187500.0, 187500.0, 187500.0, 187500.0, 187500.0, 187500.0, 0.032, -0.018000000000000002, 0.994, 192.0, 0.0, 0.0, 0.0, 0.0, 0.0, 0.0, 0.0, 0.0, 0.0, 1.69468166174639E9, 0.0, 2023-09-14 10:54:21.746
228.0, -15.623869374259638, 187500.0, 187500.0, 187500.0, 187500.0, 187500.0, 187500.0, 187500.0, 0.032, -0.018000000000000002, 0.994, 192.0, 0.0, 0.0, 0.0, 0.0, 0.0, 0.0, 0.0, 0.0, 0.0, 1.6946816617464266E9, 0.0, 2023-09-14 10:54:21.746
229.0, -34.354631227806955, 187500.0, 187500.0, 187500.0, 187500.0, 187500.0, 187500.0, 187500.0, 0.032, -0.018000000000000002, 0.994, 192.0, 0.0, 0.0, 0.0, 0.0, 0.0, 0.0, 0.0, 0.0, 0.0, 1.6946816617464523E9, 0.0, 2023-09-14 10:54:21.746
230.0, -38.46735220758345, 187500.0, 187500.0, 187500.0, 187500.0, 187500.0, 187500.0, 187500.0, 0.032, -0.018000000000000002, 0.994, 192.0, 0.0, 0.0, 0.0, 0.0, 0.0, 0.0, 0.0, 0.0, 0.0, 1.6946816617464783E9, 0.0, 2023-09-14 10:54:21.746
231.0, -38.42264871867284, 187500.0, 187500.0, 187500.0, 187500.0, 187500.0, 187500.0, 187500.0, 0.032, -0.018000000000000002, 0.994, 192.0, 0.0, 0.0, 0.0, 0.0, 0.0, 0.0, 0.0, 0.0, 0.0, 1.694681661746538E9, 0.0, 2023-09-14 10:54:21.746
232.0, -33.505264938505285, 187500.0, 187500.0, 187500.0, 187500.0, 187500.0, 187500.0, 187500.0, 0.032, -0.018000000000000002, 0.994, 192.0, 0.0, 0.0, 0.0, 0.0, 0.0, 0.0, 0.0, 0.0, 0.0, 1.694681661746564E9, 0.0, 2023-09-14 10:54:21.746
233.0, -14.841558318323889, 187500.0, 187500.0, 187500.0, 187500.0, 187500.0, 187500.0, 187500.0, 0.032, -0.018000000000000002, 0.994, 192.0, 0.0, 0.0, 0.0, 0.0, 0.0, 0.0, 0.0, 0.0, 0.0, 1.6946816617465887E9, 0.0, 2023-09-14 10:54:21.746
234.0, -10.28180244944125, 187500.0, 187500.0, 187500.0, 187500.0, 187500.0, 187500.0, 187500.0, 0.032, -0.018000000000000002, 0.994, 192.0, 0.0, 0.0, 0.0, 0.0, 0.0, 0.0, 0.0, 0.0, 0.0, 1.6946816617466135E9, 0.0, 2023-09-14 10:54:21.746
235.0, -10.214747216075327, 187500.0, 187500.0, 187500.0, 187500.0, 187500.0, 187500.0, 187500.0, 0.034, -0.016, 0.998, 192.0, 1.0, 16.0, 255.0, 128.0, 31.0, 48.0, 0.0, 0.0, 0.0, 1.6946816617466383E9, 0.0, 2023-09-14 10:54:21.746
236.0, -15.355648440795951, 187500.0, 187500.0, 187500.0, 187500.0, 187500.0, 187500.0, 187500.0, 0.034, -0.016, 0.998, 192.0, 0.0, 0.0, 0.0, 0.0, 0.0, 0.0, 0.0, 0.0, 0.0, 1.6946816617466645E9, 0.0, 2023-09-14 10:54:21.746
237.0, -34.10876203879858, 187500.0, 187500.0, 187500.0, 187500.0, 187500.0, 187500.0, 187500.0, 0.034, -0.016, 0.998, 192.0, 0.0, 0.0, 0.0, 0.0, 0.0, 0.0, 0.0, 0.0, 0.0, 1.694681661746689E9, 0.0, 2023-09-14 10:54:21.746
238.0, -38.62381441877061, 187500.0, 187500.0, 187500.0, 187500.0, 187500.0, 187500.0, 187500.0, 0.034, -0.016, 0.998, 192.0, 0.0, 0.0, 0.0, 0.0, 0.0, 0.0, 0.0, 0.0, 0.0, 1.694681661746714E9, 0.0, 2023-09-14 10:54:21.746
239.0, -38.445000463128146, 187500.0, 187500.0, 187500.0, 187500.0, 187500.0, 187500.0, 187500.0, 0.034, -0.016, 0.998, 192.0, 0.0, 0.0, 0.0, 0.0, 0.0, 0.0, 0.0, 0.0, 0.0, 1.694681661746739E9, 0.0, 2023-09-14 10:54:21.746
240.0, -33.5499684274159, 187500.0, 187500.0, 187500.0, 187500.0, 187500.0, 187500.0, 187500.0, 0.034, -0.016, 0.998, 192.0, 0.0, 0.0, 0.0, 0.0, 0.0, 0.0, 0.0, 0.0, 0.0, 1.6946816617467637E9, 0.0, 2023-09-14 10:54:21.746
241.0, -14.908613551689811, 187500.0, 187500.0, 187500.0, 187500.0, 187500.0, 187500.0, 187500.0, 0.034, -0.016, 0.998, 192.0, 0.0, 0.0, 0.0, 0.0, 0.0, 0.0, 0.0, 0.0, 0.0, 1.6946816622222862E9, 0.0, 2023-09-14 10:54:22.222
242.0, -10.594726871815547, 187500.0, 187500.0, 187500.0, 187500.0, 187500.0, 187500.0, 187500.0, 0.034, -0.016, 0.998, 192.0, 0.0, 0.0, 0.0, 0.0, 0.0, 0.0, 0.0, 0.0, 0.0, 1.6946816622224047E9, 0.0, 2023-09-14 10:54:22.222
243.0, -10.505319893994319, 187500.0, 187500.0, 187500.0, 187500.0, 187500.0, 187500.0, 187500.0, 0.034, -0.016, 0.998, 192.0, 0.0, 0.0, 0.0, 0.0, 0.0, 0.0, 0.0, 0.0, 0.0, 1.694681662222505E9, 0.0, 2023-09-14 10:54:22.222
244.0, -15.467407163072487, 187500.0, 187500.0, 187500.0, 187500.0, 187500.0, 187500.0, 187500.0, 0.034, -0.016, 0.998, 192.0, 0.0, 0.0, 0.0, 0.0, 0.0, 0.0, 0.0, 0.0, 0.0, 1.694681662222561E9, 0.0, 2023-09-14 10:54:22.222
245.0, -34.1758172721645, 187500.0, 187500.0, 187500.0, 187500.0, 187500.0, 187500.0, 187500.0, 0.034, -0.018000000000000002, 0.998, 192.0, 1.0, 16.0, 255.0, 112.0, 31.0, 48.0, 0.0, 0.0, 0.0, 1.6946816622226064E9, 0.0, 2023-09-14 10:54:22.222
246.0, -38.445000463128146, 187500.0, 187500.0, 187500.0, 187500.0, 187500.0, 187500.0, 187500.0, 0.034, -0.018000000000000002, 0.998, 192.0, 0.0, 0.0, 0.0, 0.0, 0.0, 0.0, 0.0, 0.0, 0.0, 1.694681662222776E9, 0.0, 2023-09-14 10:54:22.222
247.0, -38.62381441877061, 187500.0, 187500.0, 187500.0, 187500.0, 187500.0, 187500.0, 187500.0, 0.034, -0.018000000000000002, 0.998, 192.0, 0.0, 0.0, 0.0, 0.0, 0.0, 0.0, 0.0, 0.0, 0.0, 1.6946816622228274E9, 0.0, 2023-09-14 10:54:22.222
248.0, -33.684078894147746, 187500.0, 187500.0, 187500.0, 187500.0, 187500.0, 187500.0, 187500.0, 0.034, -0.018000000000000002, 0.998, 192.0, 0.0, 0.0, 0.0, 0.0, 0.0, 0.0, 0.0, 0.0, 0.0, 1.6946816622228875E9, 0.0, 2023-09-14 10:54:22.222
249.0, -14.99802052951104, 187500.0, 187500.0, 187500.0, 187500.0, 187500.0, 187500.0, 187500.0, 0.034, -0.018000000000000002, 0.998, 192.0, 0.0, 0.0, 0.0, 0.0, 0.0, 0.0, 0.0, 0.0, 0.0, 1.6946816622229512E9, 0.0, 2023-09-14 10:54:22.222
250.0, -10.639430360726163, 187500.0, 187500.0, 187500.0, 187500.0, 187500.0, 187500.0, 187500.0, 0.034, -0.018000000000000002, 0.998, 192.0, 0.0, 0.0, 0.0, 0.0, 0.0, 0.0, 0.0, 0.0, 0.0, 1.694681662222994E9, 0.0, 2023-09-14 10:54:22.222
251.0, -10.304154193896556, 187500.0, 187500.0, 187500.0, 187500.0, 187500.0, 187500.0, 187500.0, 0.034, -0.018000000000000002, 0.998, 192.0, 0.0, 0.0, 0.0, 0.0, 0.0, 0.0, 0.0, 0.0, 0.0, 1.6946816622230368E9, 0.0, 2023-09-14 10:54:22.223
252.0, -15.467407163072487, 187500.0, 187500.0, 187500.0, 187500.0, 187500.0, 187500.0, 187500.0, 0.034, -0.018000000000000002, 0.998, 192.0, 0.0, 0.0, 0.0, 0.0, 0.0, 0.0, 0.0, 0.0, 0.0, 1.6946816622230768E9, 0.0, 2023-09-14 10:54:22.223
253.0, -34.53344518344941, 187500.0, 187500.0, 187500.0, 187500.0, 187500.0, 187500.0, 187500.0, 0.034, -0.018000000000000002, 0.998, 192.0, 0.0, 0.0, 0.0, 0.0, 0.0, 0.0, 0.0, 0.0, 0.0, 1.694681662223117E9, 0.0, 2023-09-14 10:54:22.223
254.0, -38.53440744094937, 187500.0, 187500.0, 187500.0, 187500.0, 187500.0, 187500.0, 187500.0, 0.034, -0.018000000000000002, 0.998, 192.0, 0.0, 0.0, 0.0, 0.0, 0.0, 0.0, 0.0, 0.0, 0.0, 1.694681662223154E9, 0.0, 2023-09-14 10:54:22.223
255.0, -38.53440744094937, 187500.0, 187500.0, 187500.0, 187500.0, 187500.0, 187500.0, 187500.0, 0.036000000000000004, -0.016, 1.0, 192.0, 1.0, 32.0, 255.0, 128.0, 31.0, 64.0, 0.0, 0.0, 0.0, 1.6946816622232552E9, 0.0, 2023-09-14 10:54:22.223
0.0, -33.79583761642428, 187500.0, 187500.0, 187500.0, 187500.0, 187500.0, 187500.0, 187500.0, 0.036000000000000004, -0.016, 1.0, 192.0, 0.0, 0.0, 0.0, 0.0, 0.0, 0.0, 0.0, 0.0, 0.0, 1.694681662223324E9, 0.0, 2023-09-14 10:54:22.223
1.0, -14.99802052951104, 187500.0, 187500.0, 187500.0, 187500.0, 187500.0, 187500.0, 187500.0, 0.036000000000000004, -0.016, 1.0, 192.0, 0.0, 0.0, 0.0, 0.0, 0.0, 0.0, 0.0, 0.0, 0.0, 1.6946816622233667E9, 0.0, 2023-09-14 10:54:22.223
2.0, -10.125340238254099, 187500.0, 187500.0, 187500.0, 187500.0, 187500.0, 187500.0, 187500.0, 0.036000000000000004, -0.016, 1.0, 192.0, 0.0, 0.0, 0.0, 0.0, 0.0, 0.0, 0.0, 0.0, 0.0, 1.694681662223404E9, 0.0, 2023-09-14 10:54:22.223
3.0, -10.415912916173092, 187500.0, 187500.0, 187500.0, 187500.0, 187500.0, 187500.0, 187500.0, 0.036000000000000004, -0.016, 1.0, 192.0, 0.0, 0.0, 0.0, 0.0, 0.0, 0.0, 0.0, 0.0, 0.0, 1.6946816622234392E9, 0.0, 2023-09-14 10:54:22.223
4.0, -15.467407163072487, 187500.0, 187500.0, 187500.0, 187500.0, 187500.0, 187500.0, 187500.0, 0.036000000000000004, -0.016, 1.0, 192.0, 0.0, 0.0, 0.0, 0.0, 0.0, 0.0, 0.0, 0.0, 0.0, 1.6946816622234712E9, 0.0, 2023-09-14 10:54:22.223
5.0, -34.46638995008349, 187500.0, 187500.0, 187500.0, 187500.0, 187500.0, 187500.0, 187500.0, 0.036000000000000004, -0.016, 1.0, 192.0, 0.0, 0.0, 0.0, 0.0, 0.0, 0.0, 0.0, 0.0, 0.0, 1.6946816622237055E9, 0.0, 2023-09-14 10:54:22.223
6.0, -38.86968360777898, 187500.0, 187500.0, 187500.0, 187500.0, 187500.0, 187500.0, 187500.0, 0.036000000000000004, -0.016, 1.0, 192.0, 0.0, 0.0, 0.0, 0.0, 0.0, 0.0, 0.0, 0.0, 0.0, 1.6946816622237663E9, 0.0, 2023-09-14 10:54:22.223
7.0, -38.75792488550245, 187500.0, 187500.0, 187500.0, 187500.0, 187500.0, 187500.0, 187500.0, 0.036000000000000004, -0.016, 1.0, 192.0, 0.0, 0.0, 0.0, 0.0, 0.0, 0.0, 0.0, 0.0, 0.0, 1.694681662223822E9, 0.0, 2023-09-14 10:54:22.223
8.0, -33.46056144959467, 187500.0, 187500.0, 187500.0, 187500.0, 187500.0, 187500.0, 187500.0, 0.036000000000000004, -0.016, 1.0, 192.0, 0.0, 0.0, 0.0, 0.0, 0.0, 0.0, 0.0, 0.0, 0.0, 1.6946816622238798E9, 0.0, 2023-09-14 10:54:22.223
9.0, -15.06507576287696, 187500.0, 187500.0, 187500.0, 187500.0, 187500.0, 187500.0, 187500.0, 0.038, -0.022, 1.0, 192.0, 1.0, 48.0, 255.0, 80.0, 31.0, 64.0, 0.0, 0.0, 0.0, 1.6946816622239363E9, 0.0, 2023-09-14 10:54:22.223
10.0, -10.751189083002696, 187500.0, 187500.0, 187500.0, 187500.0, 187500.0, 187500.0, 187500.0, 0.038, -0.022, 1.0, 192.0, 0.0, 0.0, 0.0, 0.0, 0.0, 0.0, 0.0, 0.0, 0.0, 1.69468166222399E9, 0.0, 2023-09-14 10:54:22.223
11.0, -10.706485594092083, 187500.0, 187500.0, 187500.0, 187500.0, 187500.0, 187500.0, 187500.0, 0.038, -0.022, 1.0, 192.0, 0.0, 0.0, 0.0, 0.0, 0.0, 0.0, 0.0, 0.0, 0.0, 1.694681662224036E9, 0.0, 2023-09-14 10:54:22.224
12.0, -15.556814140893716, 187500.0, 187500.0, 187500.0, 187500.0, 187500.0, 187500.0, 187500.0, 0.038, -0.022, 1.0, 192.0, 0.0, 0.0, 0.0, 0.0, 0.0, 0.0, 0.0, 0.0, 0.0, 1.6946816622240877E9, 0.0, 2023-09-14 10:54:22.224
13.0, -34.10876203879858, 187500.0, 187500.0, 187500.0, 187500.0, 187500.0, 187500.0, 187500.0, 0.038, -0.022, 1.0, 192.0, 0.0, 0.0, 0.0, 0.0, 0.0, 0.0, 0.0, 0.0, 0.0, 1.694681662224138E9, 0.0, 2023-09-14 10:54:22.224
14.0, -38.26618650748569, 187500.0, 187500.0, 187500.0, 187500.0, 187500.0, 187500.0, 187500.0, 0.038, -0.022, 1.0, 192.0, 0.0, 0.0, 0.0, 0.0, 0.0, 0.0, 0.0, 0.0, 0.0, 1.6946816622242343E9, 0.0, 2023-09-14 10:54:22.224
15.0, -38.15442778520916, 187500.0, 187500.0, 187500.0, 187500.0, 187500.0, 187500.0, 187500.0, 0.038, -0.022, 1.0, 192.0, 0.0, 0.0, 0.0, 0.0, 0.0, 0.0, 0.0, 0.0, 0.0, 1.6946816622242987E9, 0.0, 2023-09-14 10:54:22.224
16.0, -33.46056144959467, 187500.0, 187500.0, 187500.0, 187500.0, 187500.0, 187500.0, 187500.0, 0.038, -0.022, 1.0, 192.0, 0.0, 0.0, 0.0, 0.0, 0.0, 0.0, 0.0, 0.0, 0.0, 1.6946816622243476E9, 0.0, 2023-09-14 10:54:22.224
17.0, -14.841558318323889, 187500.0, 187500.0, 187500.0, 187500.0, 187500.0, 187500.0, 187500.0, 0.038, -0.022, 1.0, 192.0, 0.0, 0.0, 0.0, 0.0, 0.0, 0.0, 0.0, 0.0, 0.0, 1.6946816622244103E9, 0.0, 2023-09-14 10:54:22.224
18.0, -9.96887802706695, 187500.0, 187500.0, 187500.0, 187500.0, 187500.0, 187500.0, 187500.0, 0.038, -0.022, 1.0, 192.0, 0.0, 0.0, 0.0, 0.0, 0.0, 0.0, 0.0, 0.0, 0.0, 1.694681662224456E9, 0.0, 2023-09-14 10:54:22.224
19.0, -10.28180244944125, 187500.0, 187500.0, 187500.0, 187500.0, 187500.0, 187500.0, 187500.0, 0.038, -0.022, 1.002, 192.0, 1.0, 48.0, 255.0, 80.0, 31.0, 80.0, 0.0, 0.0, 0.0, 1.6946816622245045E9, 0.0, 2023-09-14 10:54:22.224
20.0, -15.355648440795951, 187500.0, 187500.0, 187500.0, 187500.0, 187500.0, 187500.0, 187500.0, 0.038, -0.022, 1.002, 192.0, 0.0, 0.0, 0.0, 0.0, 0.0, 0.0, 0.0, 0.0, 0.0, 1.6946816622245524E9, 0.0, 2023-09-14 10:54:22.224
21.0, -34.1758172721645, 187500.0, 187500.0, 187500.0, 187500.0, 187500.0, 187500.0, 187500.0, 0.038, -0.022, 1.002, 192.0, 0.0, 0.0, 0.0, 0.0, 0.0, 0.0, 0.0, 0.0, 0.0, 1.6946816622246869E9, 0.0, 2023-09-14 10:54:22.224
22.0, -38.6014626743153, 187500.0, 187500.0, 187500.0, 187500.0, 187500.0, 187500.0, 187500.0, 0.038, -0.022, 1.002, 192.0, 0.0, 0.0, 0.0, 0.0, 0.0, 0.0, 0.0, 0.0, 0.0, 1.6946816622247348E9, 0.0, 2023-09-14 10:54:22.224
23.0, -38.57911092985999, 187500.0, 187500.0, 187500.0, 187500.0, 187500.0, 187500.0, 187500.0, 0.038, -0.022, 1.002, 192.0, 0.0, 0.0, 0.0, 0.0, 0.0, 0.0, 0.0, 0.0, 0.0, 1.6946816622247777E9, 0.0, 2023-09-14 10:54:22.224
24.0, -33.5499684274159, 187500.0, 187500.0, 187500.0, 187500.0, 187500.0, 187500.0, 187500.0, 0.038, -0.022, 1.002, 192.0, 0.0, 0.0, 0.0, 0.0, 0.0, 0.0, 0.0, 0.0, 0.0, 1.6946816622248185E9, 0.0, 2023-09-14 10:54:22.224
25.0, -14.908613551689811, 187500.0, 187500.0, 187500.0, 187500.0, 187500.0, 187500.0, 187500.0, 0.038, -0.022, 1.002, 192.0, 0.0, 0.0, 0.0, 0.0, 0.0, 0.0, 0.0, 0.0, 0.0, 1.6946816622248588E9, 0.0, 2023-09-14 10:54:22.224
26.0, -10.706485594092083, 187500.0, 187500.0, 187500.0, 187500.0, 187500.0, 187500.0, 187500.0, 0.038, -0.022, 1.002, 192.0, 0.0, 0.0, 0.0, 0.0, 0.0, 0.0, 0.0, 0.0, 0.0, 1.6946816622249E9, 0.0, 2023-09-14 10:54:22.224
27.0, -10.505319893994319, 187500.0, 187500.0, 187500.0, 187500.0, 187500.0, 187500.0, 187500.0, 0.038, -0.022, 1.002, 192.0, 0.0, 0.0, 0.0, 0.0, 0.0, 0.0, 0.0, 0.0, 0.0, 1.6946816622249448E9, 0.0, 2023-09-14 10:54:22.224
28.0, -15.400351929706567, 187500.0, 187500.0, 187500.0, 187500.0, 187500.0, 187500.0, 187500.0, 0.038, -0.022, 1.002, 192.0, 0.0, 0.0, 0.0, 0.0, 0.0, 0.0, 0.0, 0.0, 0.0, 1.694681662224998E9, 0.0, 2023-09-14 10:54:22.224
29.0, -34.10876203879858, 187500.0, 187500.0, 187500.0, 187500.0, 187500.0, 187500.0, 187500.0, 0.04, -0.022, 1.006, 192.0, 1.0, 64.0, 255.0, 80.0, 31.0, 112.0, 0.0, 0.0, 0.0, 1.6946816622250268E9, 0.0, 2023-09-14 10:54:22.225
30.0, -38.73557314104714, 187500.0, 187500.0, 187500.0, 187500.0, 187500.0, 187500.0, 187500.0, 0.04, -0.022, 1.006, 192.0, 0.0, 0.0, 0.0, 0.0, 0.0, 0.0, 0.0, 0.0, 0.0, 1.6946816622250538E9, 0.0, 2023-09-14 10:54:22.225
31.0, -39.02614581896613, 187500.0, 187500.0, 187500.0, 187500.0, 187500.0, 187500.0, 187500.0, 0.04, -0.022, 1.006, 192.0, 0.0, 0.0, 0.0, 0.0, 0.0, 0.0, 0.0, 0.0, 0.0, 1.6946816622250788E9, 0.0, 2023-09-14 10:54:22.225
32.0, -33.90759633870081, 187500.0, 187500.0, 187500.0, 187500.0, 187500.0, 187500.0, 187500.0, 0.04, -0.022, 1.006, 192.0, 0.0, 0.0, 0.0, 0.0, 0.0, 0.0, 0.0, 0.0, 0.0, 1.694681662225104E9, 0.0, 2023-09-14 10:54:22.225
33.0, -14.975668785055731, 187500.0, 187500.0, 187500.0, 187500.0, 187500.0, 187500.0, 187500.0, 0.04, -0.022, 1.006, 192.0, 0.0, 0.0, 0.0, 0.0, 0.0, 0.0, 0.0, 0.0, 0.0, 1.694681662225129E9, 0.0, 2023-09-14 10:54:22.225
34.0, -10.415912916173092, 187500.0, 187500.0, 187500.0, 187500.0, 187500.0, 187500.0, 187500.0, 0.04, -0.022, 1.006, 192.0, 0.0, 0.0, 0.0, 0.0, 0.0, 0.0, 0.0, 0.0, 0.0, 1.6946816622251549E9, 0.0, 2023-09-14 10:54:22.225
35.0, -10.639430360726163, 187500.0, 187500.0, 187500.0, 187500.0, 187500.0, 187500.0, 187500.0, 0.04, -0.022, 1.006, 192.0, 0.0, 0.0, 0.0, 0.0, 0.0, 0.0, 0.0, 0.0, 0.0, 1.6946816622251797E9, 0.0, 2023-09-14 10:54:22.225
36.0, -15.489758907527795, 187500.0, 187500.0, 187500.0, 187500.0, 187500.0, 187500.0, 187500.0, 0.04, -0.022, 1.006, 192.0, 0.0, 0.0, 0.0, 0.0, 0.0, 0.0, 0.0, 0.0, 0.0, 1.694681662225326E9, 0.0, 2023-09-14 10:54:22.225
37.0, -34.64520390572595, 187500.0, 187500.0, 187500.0, 187500.0, 187500.0, 187500.0, 187500.0, 0.04, -0.022, 1.006, 192.0, 0.0, 0.0, 0.0, 0.0, 0.0, 0.0, 0.0, 0.0, 0.0, 1.6946816622253668E9, 0.0, 2023-09-14 10:54:22.225
38.0, -38.713221396591834, 187500.0, 187500.0, 187500.0, 187500.0, 187500.0, 187500.0, 187500.0, 0.04, -0.022, 1.006, 192.0, 0.0, 0.0, 0.0, 0.0, 0.0, 0.0, 0.0, 0.0, 0.0, 1.6946816622254083E9, 0.0, 2023-09-14 10:54:22.225
39.0, -38.35559348530692, 187500.0, 187500.0, 187500.0, 187500.0, 187500.0, 187500.0, 187500.0, 0.038, -0.022, 1.002, 192.0, 1.0, 48.0, 255.0, 80.0, 31.0, 80.0, 0.0, 0.0, 0.0, 1.69468166222545E9, 0.0, 2023-09-14 10:54:22.225
40.0, -33.617023660781825, 187500.0, 187500.0, 187500.0, 187500.0, 187500.0, 187500.0, 187500.0, 0.038, -0.022, 1.002, 192.0, 0.0, 0.0, 0.0, 0.0, 0.0, 0.0, 0.0, 0.0, 0.0, 1.6946816622254963E9, 0.0, 2023-09-14 10:54:22.225
41.0, -14.908613551689811, 187500.0, 187500.0, 187500.0, 187500.0, 187500.0, 187500.0, 187500.0, 0.038, -0.022, 1.002, 192.0, 0.0, 0.0, 0.0, 0.0, 0.0, 0.0, 0.0, 0.0, 0.0, 1.6946816622255375E9, 0.0, 2023-09-14 10:54:22.225
42.0, -10.259450704985941, 187500.0, 187500.0, 187500.0, 187500.0, 187500.0, 187500.0, 187500.0, 0.038, -0.022, 1.002, 192.0, 0.0, 0.0, 0.0, 0.0, 0.0, 0.0, 0.0, 0.0, 0.0, 1.6946816622255783E9, 0.0, 2023-09-14 10:54:22.225
43.0, -10.259450704985941, 187500.0, 187500.0, 187500.0, 187500.0, 187500.0, 187500.0, 187500.0, 0.038, -0.022, 1.002, 192.0, 0.0, 0.0, 0.0, 0.0, 0.0, 0.0, 0.0, 0.0, 0.0, 1.6946816622256205E9, 0.0, 2023-09-14 10:54:22.225
44.0, -15.288593207430031, 187500.0, 187500.0, 187500.0, 187500.0, 187500.0, 187500.0, 187500.0, 0.038, -0.022, 1.002, 192.0, 0.0, 0.0, 0.0, 0.0, 0.0, 0.0, 0.0, 0.0, 0.0, 1.6946816622256637E9, 0.0, 2023-09-14 10:54:22.225
45.0, -34.30992773889634, 187500.0, 187500.0, 187500.0, 187500.0, 187500.0, 187500.0, 187500.0, 0.038, -0.022, 1.002, 192.0, 0.0, 0.0, 0.0, 0.0, 0.0, 0.0, 0.0, 0.0, 0.0, 1.694681662225708E9, 0.0, 2023-09-14 10:54:22.225
46.0, -38.69086965213653, 187500.0, 187500.0, 187500.0, 187500.0, 187500.0, 187500.0, 187500.0, 0.038, -0.022, 1.002, 192.0, 0.0, 0.0, 0.0, 0.0, 0.0, 0.0, 0.0, 0.0, 0.0, 1.6946816622257507E9, 0.0, 2023-09-14 10:54:22.225
47.0, -38.75792488550245, 187500.0, 187500.0, 187500.0, 187500.0, 187500.0, 187500.0, 187500.0, 0.038, -0.022, 1.002, 192.0, 0.0, 0.0, 0.0, 0.0, 0.0, 0.0, 0.0, 0.0, 0.0, 1.694681662225794E9, 0.0, 2023-09-14 10:54:22.225
48.0, -33.63937540523713, 187500.0, 187500.0, 187500.0, 187500.0, 187500.0, 187500.0, 187500.0, 0.038, -0.022, 1.002, 192.0, 0.0, 0.0, 0.0, 0.0, 0.0, 0.0, 0.0, 0.0, 0.0, 1.6946816622258427E9, 0.0, 2023-09-14 10:54:22.225
49.0, -14.461578662583669, 187500.0, 187500.0, 187500.0, 187500.0, 187500.0, 187500.0, 187500.0, 0.03, -0.02, 1.004, 192.0, 0.0, 240.0, 255.0, 96.0, 31.0, 96.0, 0.0, 0.0, 0.0, 1.694681662225889E9, 0.0, 2023-09-14 10:54:22.225
50.0, -10.550023382904934, 187500.0, 187500.0, 187500.0, 187500.0, 187500.0, 187500.0, 187500.0, 0.03, -0.02, 1.004, 192.0, 0.0, 0.0, 0.0, 0.0, 0.0, 0.0, 0.0, 0.0, 0.0, 1.6946816622259364E9, 0.0, 2023-09-14 10:54:22.225
51.0, -10.527671638449627, 187500.0, 187500.0, 187500.0, 187500.0, 187500.0, 187500.0, 187500.0, 0.03, -0.02, 1.004, 192.0, 0.0, 0.0, 0.0, 0.0, 0.0, 0.0, 0.0, 0.0, 0.0, 1.6946816622260413E9, 0.0, 2023-09-14 10:54:22.226
52.0, -15.221537974064109, 187500.0, 187500.0, 187500.0, 187500.0, 187500.0, 187500.0, 187500.0, 0.03, -0.02, 1.004, 192.0, 0.0, 0.0, 0.0, 0.0, 0.0, 0.0, 0.0, 0.0, 0.0, 1.6946816622260833E9, 0.0, 2023-09-14 10:54:22.226
53.0, -34.13111378325389, 187500.0, 187500.0, 187500.0, 187500.0, 187500.0, 187500.0, 187500.0, 0.03, -0.02, 1.004, 192.0, 0.0, 0.0, 0.0, 0.0, 0.0, 0.0, 0.0, 0.0, 0.0, 1.6946816622261257E9, 0.0, 2023-09-14 10:54:22.226
54.0, -38.35559348530692, 187500.0, 187500.0, 187500.0, 187500.0, 187500.0, 187500.0, 187500.0, 0.03, -0.02, 1.004, 192.0, 0.0, 0.0, 0.0, 0.0, 0.0, 0.0, 0.0, 0.0, 0.0, 1.694681662226174E9, 0.0, 2023-09-14 10:54:22.226
55.0, -38.6014626743153, 187500.0, 187500.0, 187500.0, 187500.0, 187500.0, 187500.0, 187500.0, 0.03, -0.02, 1.004, 192.0, 0.0, 0.0, 0.0, 0.0, 0.0, 0.0, 0.0, 0.0, 0.0, 1.6946816622262466E9, 0.0, 2023-09-14 10:54:22.226
56.0, -33.95229982761143, 187500.0, 187500.0, 187500.0, 187500.0, 187500.0, 187500.0, 187500.0, 0.03, -0.02, 1.004, 192.0, 0.0, 0.0, 0.0, 0.0, 0.0, 0.0, 0.0, 0.0, 0.0, 1.6946816622262926E9, 0.0, 2023-09-14 10:54:22.226
57.0, -14.819206573868582, 187500.0, 187500.0, 187500.0, 187500.0, 187500.0, 187500.0, 187500.0, 0.03, -0.02, 1.004, 192.0, 0.0, 0.0, 0.0, 0.0, 0.0, 0.0, 0.0, 0.0, 0.0, 1.6946816622263386E9, 0.0, 2023-09-14 10:54:22.226
58.0, -10.147691982709407, 187500.0, 187500.0, 187500.0, 187500.0, 187500.0, 187500.0, 187500.0, 0.03, -0.02, 1.004, 192.0, 0.0, 0.0, 0.0, 0.0, 0.0, 0.0, 0.0, 0.0, 0.0, 1.6946816622263825E9, 0.0, 2023-09-14 10:54:22.226
59.0, -10.482968149539012, 187500.0, 187500.0, 187500.0, 187500.0, 187500.0, 187500.0, 187500.0, 0.032, -0.022, 1.008, 192.0, 1.0, 0.0, 255.0, 80.0, 31.0, 128.0, 0.0, 0.0, 0.0, 1.6946816622264276E9, 0.0, 2023-09-14 10:54:22.226
60.0, -15.467407163072487, 187500.0, 187500.0, 187500.0, 187500.0, 187500.0, 187500.0, 187500.0, 0.032, -0.022, 1.008, 192.0, 0.0, 0.0, 0.0, 0.0, 0.0, 0.0, 0.0, 0.0, 0.0, 1.694681662226474E9, 0.0, 2023-09-14 10:54:22.226
61.0, -34.30992773889634, 187500.0, 187500.0, 187500.0, 187500.0, 187500.0, 187500.0, 187500.0, 0.032, -0.022, 1.008, 192.0, 0.0, 0.0, 0.0, 0.0, 0.0, 0.0, 0.0, 0.0, 0.0, 1.6946816622265165E9, 0.0, 2023-09-14 10:54:22.226
62.0, -38.53440744094937, 187500.0, 187500.0, 187500.0, 187500.0, 187500.0, 187500.0, 187500.0, 0.032, -0.022, 1.008, 192.0, 0.0, 0.0, 0.0, 0.0, 0.0, 0.0, 0.0, 0.0, 0.0, 1.6946816622265627E9, 0.0, 2023-09-14 10:54:22.226
63.0, -38.57911092985999, 187500.0, 187500.0, 187500.0, 187500.0, 187500.0, 187500.0, 187500.0, 0.032, -0.022, 1.008, 192.0, 0.0, 0.0, 0.0, 0.0, 0.0, 0.0, 0.0, 0.0, 0.0, 1.6946816622266088E9, 0.0, 2023-09-14 10:54:22.226
64.0, -33.684078894147746, 187500.0, 187500.0, 187500.0, 187500.0, 187500.0, 187500.0, 187500.0, 0.032, -0.022, 1.008, 192.0, 0.0, 0.0, 0.0, 0.0, 0.0, 0.0, 0.0, 0.0, 0.0, 1.6946816622266529E9, 0.0, 2023-09-14 10:54:22.226
65.0, -14.796854829413276, 187500.0, 187500.0, 187500.0, 187500.0, 187500.0, 187500.0, 187500.0, 0.032, -0.022, 1.008, 192.0, 0.0, 0.0, 0.0, 0.0, 0.0, 0.0, 0.0, 0.0, 0.0, 1.6946816622266996E9, 0.0, 2023-09-14 10:54:22.226
66.0, -10.617078616270854, 187500.0, 187500.0, 187500.0, 187500.0, 187500.0, 187500.0, 187500.0, 0.032, -0.022, 1.008, 192.0, 0.0, 0.0, 0.0, 0.0, 0.0, 0.0, 0.0, 0.0, 0.0, 1.6946816622267413E9, 0.0, 2023-09-14 10:54:22.226
67.0, -10.438264660628398, 187500.0, 187500.0, 187500.0, 187500.0, 187500.0, 187500.0, 187500.0, 0.032, -0.022, 1.008, 192.0, 0.0, 0.0, 0.0, 0.0, 0.0, 0.0, 0.0, 0.0, 0.0, 1.6946816622268374E9, 0.0, 2023-09-14 10:54:22.226
68.0, -15.489758907527795, 187500.0, 187500.0, 187500.0, 187500.0, 187500.0, 187500.0, 187500.0, 0.032, -0.022, 1.008, 192.0, 0.0, 0.0, 0.0, 0.0, 0.0, 0.0, 0.0, 0.0, 0.0, 1.6946816622268631E9, 0.0, 2023-09-14 10:54:22.226
69.0, -34.10876203879858, 187500.0, 187500.0, 187500.0, 187500.0, 187500.0, 187500.0, 187500.0, 0.03, -0.022, 1.006, 192.0, 0.0, 240.0, 255.0, 80.0, 31.0, 112.0, 0.0, 0.0, 0.0, 1.694681662226888E9, 0.0, 2023-09-14 10:54:22.226
70.0, -38.26618650748569, 187500.0, 187500.0, 187500.0, 187500.0, 187500.0, 187500.0, 187500.0, 0.03, -0.022, 1.006, 192.0, 0.0, 0.0, 0.0, 0.0, 0.0, 0.0, 0.0, 0.0, 0.0, 1.6946816622269144E9, 0.0, 2023-09-14 10:54:22.226
71.0, -38.53440744094937, 187500.0, 187500.0, 187500.0, 187500.0, 187500.0, 187500.0, 187500.0, 0.03, -0.022, 1.006, 192.0, 0.0, 0.0, 0.0, 0.0, 0.0, 0.0, 0.0, 0.0, 0.0, 1.6946816622269404E9, 0.0, 2023-09-14 10:54:22.226
72.0, -33.684078894147746, 187500.0, 187500.0, 187500.0, 187500.0, 187500.0, 187500.0, 187500.0, 0.03, -0.022, 1.006, 192.0, 0.0, 0.0, 0.0, 0.0, 0.0, 0.0, 0.0, 0.0, 0.0, 1.6946816622269652E9, 0.0, 2023-09-14 10:54:22.226
73.0, -14.774503084957969, 187500.0, 187500.0, 187500.0, 187500.0, 187500.0, 187500.0, 187500.0, 0.03, -0.022, 1.006, 192.0, 0.0, 0.0, 0.0, 0.0, 0.0, 0.0, 0.0, 0.0, 0.0, 1.69468166222699E9, 0.0, 2023-09-14 10:54:22.226
74.0, -10.237098960530634, 187500.0, 187500.0, 187500.0, 187500.0, 187500.0, 187500.0, 187500.0, 0.03, -0.022, 1.006, 192.0, 0.0, 0.0, 0.0, 0.0, 0.0, 0.0, 0.0, 0.0, 0.0, 1.6946816622270148E9, 0.0, 2023-09-14 10:54:22.227
75.0, -10.415912916173092, 187500.0, 187500.0, 187500.0, 187500.0, 187500.0, 187500.0, 187500.0, 0.03, -0.022, 1.006, 192.0, 0.0, 0.0, 0.0, 0.0, 0.0, 0.0, 0.0, 0.0, 0.0, 1.6946816622270396E9, 0.0, 2023-09-14 10:54:22.227
76.0, -15.623869374259638, 187500.0, 187500.0, 187500.0, 187500.0, 187500.0, 187500.0, 187500.0, 0.03, -0.022, 1.006, 192.0, 0.0, 0.0, 0.0, 0.0, 0.0, 0.0, 0.0, 0.0, 0.0, 1.6946816622270644E9, 0.0, 2023-09-14 10:54:22.227
77.0, -34.5110934389941, 187500.0, 187500.0, 187500.0, 187500.0, 187500.0, 187500.0, 187500.0, 0.03, -0.022, 1.006, 192.0, 0.0, 0.0, 0.0, 0.0, 0.0, 0.0, 0.0, 0.0, 0.0, 1.6946816622270892E9, 0.0, 2023-09-14 10:54:22.227
78.0, -38.512055696494066, 187500.0, 187500.0, 187500.0, 187500.0, 187500.0, 187500.0, 187500.0, 0.03, -0.022, 1.006, 192.0, 0.0, 0.0, 0.0, 0.0, 0.0, 0.0, 0.0, 0.0, 0.0, 1.694681662227114E9, 0.0, 2023-09-14 10:54:22.227
79.0, -38.35559348530692, 187500.0, 187500.0, 187500.0, 187500.0, 187500.0, 187500.0, 187500.0, 0.034, -0.026000000000000002, 1.008, 192.0, 1.0, 16.0, 255.0, 48.0, 31.0, 128.0, 0.0, 0.0, 0.0, 1.6946816622271388E9, 0.0, 2023-09-14 10:54:22.227
80.0, -33.79583761642428, 187500.0, 187500.0, 187500.0, 187500.0, 187500.0, 187500.0, 187500.0, 0.034, -0.026000000000000002, 1.008, 192.0, 0.0, 0.0, 0.0, 0.0, 0.0, 0.0, 0.0, 0.0, 0.0, 1.6946816622271652E9, 0.0, 2023-09-14 10:54:22.227
81.0, -14.953317040600425, 187500.0, 187500.0, 187500.0, 187500.0, 187500.0, 187500.0, 187500.0, 0.034, -0.026000000000000002, 1.008, 192.0, 0.0, 0.0, 0.0, 0.0, 0.0, 0.0, 0.0, 0.0, 0.0, 1.6946816622272E9, 0.0, 2023-09-14 10:54:22.227
82.0, -10.415912916173092, 187500.0, 187500.0, 187500.0, 187500.0, 187500.0, 187500.0, 187500.0, 0.034, -0.026000000000000002, 1.008, 192.0, 0.0, 0.0, 0.0, 0.0, 0.0, 0.0, 0.0, 0.0, 0.0, 1.6946816622272556E9, 0.0, 2023-09-14 10:54:22.227
83.0, -9.879471049245721, 187500.0, 187500.0, 187500.0, 187500.0, 187500.0, 187500.0, 187500.0, 0.034, -0.026000000000000002, 1.008, 192.0, 0.0, 0.0, 0.0, 0.0, 0.0, 0.0, 0.0, 0.0, 0.0, 1.6946816622272809E9, 0.0, 2023-09-14 10:54:22.227
84.0, -15.333296696340645, 187500.0, 187500.0, 187500.0, 187500.0, 187500.0, 187500.0, 187500.0, 0.034, -0.026000000000000002, 1.008, 192.0, 0.0, 0.0, 0.0, 0.0, 0.0, 0.0, 0.0, 0.0, 0.0, 1.6946816622273057E9, 0.0, 2023-09-14 10:54:22.227
85.0, -34.44403820562818, 187500.0, 187500.0, 187500.0, 187500.0, 187500.0, 187500.0, 187500.0, 0.034, -0.026000000000000002, 1.008, 192.0, 0.0, 0.0, 0.0, 0.0, 0.0, 0.0, 0.0, 0.0, 0.0, 1.6946816622273312E9, 0.0, 2023-09-14 10:54:22.227
86.0, -39.02614581896613, 187500.0, 187500.0, 187500.0, 187500.0, 187500.0, 187500.0, 187500.0, 0.034, -0.026000000000000002, 1.008, 192.0, 0.0, 0.0, 0.0, 0.0, 0.0, 0.0, 0.0, 0.0, 0.0, 1.694681662227356E9, 0.0, 2023-09-14 10:54:22.227
87.0, -39.048497563421435, 187500.0, 187500.0, 187500.0, 187500.0, 187500.0, 187500.0, 187500.0, 0.034, -0.026000000000000002, 1.008, 192.0, 0.0, 0.0, 0.0, 0.0, 0.0, 0.0, 0.0, 0.0, 0.0, 1.6946816622273808E9, 0.0, 2023-09-14 10:54:22.227
88.0, -33.617023660781825, 187500.0, 187500.0, 187500.0, 187500.0, 187500.0, 187500.0, 187500.0, 0.032, -0.02, 1.004, 192.0, 1.0, 0.0, 255.0, 96.0, 31.0, 96.0, 0.0, 0.0, 0.0, 1.6946816622274055E9, 0.0, 2023-09-14 10:54:22.227
89.0, -14.640392618226127, 187500.0, 187500.0, 187500.0, 187500.0, 187500.0, 187500.0, 187500.0, 0.032, -0.02, 1.004, 192.0, 0.0, 0.0, 0.0, 0.0, 0.0, 0.0, 0.0, 0.0, 0.0, 1.6946816622274315E9, 0.0, 2023-09-14 10:54:22.227
90.0, -10.19239547162002, 187500.0, 187500.0, 187500.0, 187500.0, 187500.0, 187500.0, 187500.0, 0.032, -0.02, 1.004, 192.0, 0.0, 0.0, 0.0, 0.0, 0.0, 0.0, 0.0, 0.0, 0.0, 1.6946816622274566E9, 0.0, 2023-09-14 10:54:22.227
91.0, -10.482968149539012, 187500.0, 187500.0, 187500.0, 187500.0, 187500.0, 187500.0, 187500.0, 0.032, -0.02, 1.004, 192.0, 0.0, 0.0, 0.0, 0.0, 0.0, 0.0, 0.0, 0.0, 0.0, 1.6946816622274811E9, 0.0, 2023-09-14 10:54:22.227
92.0, -15.556814140893716, 187500.0, 187500.0, 187500.0, 187500.0, 187500.0, 187500.0, 187500.0, 0.032, -0.02, 1.004, 192.0, 0.0, 0.0, 0.0, 0.0, 0.0, 0.0, 0.0, 0.0, 0.0, 1.694681662227506E9, 0.0, 2023-09-14 10:54:22.227
93.0, -33.99700331652204, 187500.0, 187500.0, 187500.0, 187500.0, 187500.0, 187500.0, 187500.0, 0.032, -0.02, 1.004, 192.0, 0.0, 0.0, 0.0, 0.0, 0.0, 0.0, 0.0, 0.0, 0.0, 1.6946816622275305E9, 0.0, 2023-09-14 10:54:22.227
94.0, -37.997965574022004, 187500.0, 187500.0, 187500.0, 187500.0, 187500.0, 187500.0, 187500.0, 0.032, -0.02, 1.004, 192.0, 0.0, 0.0, 0.0, 0.0, 0.0, 0.0, 0.0, 0.0, 0.0, 1.6946816622275548E9, 0.0, 2023-09-14 10:54:22.227
95.0, -38.646166163225914, 187500.0, 187500.0, 187500.0, 187500.0, 187500.0, 187500.0, 187500.0, 0.032, -0.02, 1.004, 192.0, 0.0, 0.0, 0.0, 0.0, 0.0, 0.0, 0.0, 0.0, 0.0, 1.694681662227579E9, 0.0, 2023-09-14 10:54:22.227
96.0, -33.8628928497902, 187500.0, 187500.0, 187500.0, 187500.0, 187500.0, 187500.0, 187500.0, 0.032, -0.02, 1.004, 192.0, 0.0, 0.0, 0.0, 0.0, 0.0, 0.0, 0.0, 0.0, 0.0, 1.694681662227604E9, 0.0, 2023-09-14 10:54:22.227
97.0, -14.930965296145118, 187500.0, 187500.0, 187500.0, 187500.0, 187500.0, 187500.0, 187500.0, 0.032, -0.02, 1.004, 192.0, 0.0, 0.0, 0.0, 0.0, 0.0, 0.0, 0.0, 0.0, 0.0, 1.694681662227654E9, 0.0, 2023-09-14 10:54:22.227
98.0, -10.326505938351863, 187500.0, 187500.0, 187500.0, 187500.0, 187500.0, 187500.0, 187500.0, 0.036000000000000004, -0.02, 1.004, 192.0, 1.0, 32.0, 255.0, 96.0, 31.0, 96.0, 0.0, 0.0, 0.0, 1.6946816622276795E9, 0.0, 2023-09-14 10:54:22.227
99.0, -10.34885768280717, 187500.0, 187500.0, 187500.0, 187500.0, 187500.0, 187500.0, 187500.0, 0.036000000000000004, -0.02, 1.004, 192.0, 0.0, 0.0, 0.0, 0.0, 0.0, 0.0, 0.0, 0.0, 0.0, 1.6946816622277057E9, 0.0, 2023-09-14 10:54:22.227
100.0, -15.512110651983102, 187500.0, 187500.0, 187500.0, 187500.0, 187500.0, 187500.0, 187500.0, 0.036000000000000004, -0.02, 1.004, 192.0, 0.0, 0.0, 0.0, 0.0, 0.0, 0.0, 0.0, 0.0, 0.0, 1.69468166222773E9, 0.0, 2023-09-14 10:54:22.227
101.0, -34.287575994441035, 187500.0, 187500.0, 187500.0, 187500.0, 187500.0, 187500.0, 187500.0, 0.036000000000000004, -0.02, 1.004, 192.0, 0.0, 0.0, 0.0, 0.0, 0.0, 0.0, 0.0, 0.0, 0.0, 1.6946816622277548E9, 0.0, 2023-09-14 10:54:22.227
102.0, -38.40029697421753, 187500.0, 187500.0, 187500.0, 187500.0, 187500.0, 187500.0, 187500.0, 0.036000000000000004, -0.02, 1.004, 192.0, 0.0, 0.0, 0.0, 0.0, 0.0, 0.0, 0.0, 0.0, 0.0, 1.6946816622277796E9, 0.0, 2023-09-14 10:54:22.227
103.0, -38.445000463128146, 187500.0, 187500.0, 187500.0, 187500.0, 187500.0, 187500.0, 187500.0, 0.036000000000000004, -0.02, 1.004, 192.0, 0.0, 0.0, 0.0, 0.0, 0.0, 0.0, 0.0, 0.0, 0.0, 1.694681662227804E9, 0.0, 2023-09-14 10:54:22.227
104.0, -33.5499684274159, 187500.0, 187500.0, 187500.0, 187500.0, 187500.0, 187500.0, 187500.0, 0.036000000000000004, -0.02, 1.004, 192.0, 0.0, 0.0, 0.0, 0.0, 0.0, 0.0, 0.0, 0.0, 0.0, 1.6946816622278287E9, 0.0, 2023-09-14 10:54:22.227
105.0, -14.729799596047354, 187500.0, 187500.0, 187500.0, 187500.0, 187500.0, 187500.0, 187500.0, 0.036000000000000004, -0.02, 1.004, 192.0, 0.0, 0.0, 0.0, 0.0, 0.0, 0.0, 0.0, 0.0, 0.0, 1.6946816627030838E9, 0.0, 2023-09-14 10:54:22.703
106.0, -10.527671638449627, 187500.0, 187500.0, 187500.0, 187500.0, 187500.0, 187500.0, 187500.0, 0.036000000000000004, -0.02, 1.004, 192.0, 0.0, 0.0, 0.0, 0.0, 0.0, 0.0, 0.0, 0.0, 0.0, 1.6946816627032185E9, 0.0, 2023-09-14 10:54:22.703
107.0, -10.304154193896556, 187500.0, 187500.0, 187500.0, 187500.0, 187500.0, 187500.0, 187500.0, 0.036000000000000004, -0.02, 1.004, 192.0, 0.0, 0.0, 0.0, 0.0, 0.0, 0.0, 0.0, 0.0, 0.0, 1.69468166270329E9, 0.0, 2023-09-14 10:54:22.703
108.0, -15.243889718519418, 187500.0, 187500.0, 187500.0, 187500.0, 187500.0, 187500.0, 187500.0, 0.036000000000000004, -0.02, 1.004, 192.0, 1.0, 32.0, 255.0, 96.0, 31.0, 96.0, 0.0, 0.0, 0.0, 1.6946816627033367E9, 0.0, 2023-09-14 10:54:22.703
109.0, -34.086410294343274, 187500.0, 187500.0, 187500.0, 187500.0, 187500.0, 187500.0, 187500.0, 0.036000000000000004, -0.02, 1.004, 192.0, 0.0, 0.0, 0.0, 0.0, 0.0, 0.0, 0.0, 0.0, 0.0, 1.694681662703382E9, 0.0, 2023-09-14 10:54:22.703
110.0, -38.512055696494066, 187500.0, 187500.0, 187500.0, 187500.0, 187500.0, 187500.0, 187500.0, 0.036000000000000004, -0.02, 1.004, 192.0, 0.0, 0.0, 0.0, 0.0, 0.0, 0.0, 0.0, 0.0, 0.0, 1.694681662703426E9, 0.0, 2023-09-14 10:54:22.703
111.0, -38.69086965213653, 187500.0, 187500.0, 187500.0, 187500.0, 187500.0, 187500.0, 187500.0, 0.036000000000000004, -0.02, 1.004, 192.0, 0.0, 0.0, 0.0, 0.0, 0.0, 0.0, 0.0, 0.0, 0.0, 1.6946816627034693E9, 0.0, 2023-09-14 10:54:22.703
112.0, -33.371154471773444, 187500.0, 187500.0, 187500.0, 187500.0, 187500.0, 187500.0, 187500.0, 0.036000000000000004, -0.02, 1.004, 192.0, 0.0, 0.0, 0.0, 0.0, 0.0, 0.0, 0.0, 0.0, 0.0, 1.6946816627035115E9, 0.0, 2023-09-14 10:54:22.703
113.0, -14.774503084957969, 187500.0, 187500.0, 187500.0, 187500.0, 187500.0, 187500.0, 187500.0, 0.036000000000000004, -0.02, 1.004, 192.0, 0.0, 0.0, 0.0, 0.0, 0.0, 0.0, 0.0, 0.0, 0.0, 1.6946816627037055E9, 0.0, 2023-09-14 10:54:22.703
114.0, -10.415912916173092, 187500.0, 187500.0, 187500.0, 187500.0, 187500.0, 187500.0, 187500.0, 0.036000000000000004, -0.02, 1.004, 192.0, 0.0, 0.0, 0.0, 0.0, 0.0, 0.0, 0.0, 0.0, 0.0, 1.6946816627037508E9, 0.0, 2023-09-14 10:54:22.703
115.0, -10.415912916173092, 187500.0, 187500.0, 187500.0, 187500.0, 187500.0, 187500.0, 187500.0, 0.036000000000000004, -0.02, 1.004, 192.0, 0.0, 0.0, 0.0, 0.0, 0.0, 0.0, 0.0, 0.0, 0.0, 1.6946816627037957E9, 0.0, 2023-09-14 10:54:22.703
116.0, -15.288593207430031, 187500.0, 187500.0, 187500.0, 187500.0, 187500.0, 187500.0, 187500.0, 0.036000000000000004, -0.02, 1.004, 192.0, 0.0, 0.0, 0.0, 0.0, 0.0, 0.0, 0.0, 0.0, 0.0, 1.6946816627038383E9, 0.0, 2023-09-14 10:54:22.703
117.0, -34.10876203879858, 187500.0, 187500.0, 187500.0, 187500.0, 187500.0, 187500.0, 187500.0, 0.036000000000000004, -0.02, 1.004, 192.0, 0.0, 0.0, 0.0, 0.0, 0.0, 0.0, 0.0, 0.0, 0.0, 1.694681662703883E9, 0.0, 2023-09-14 10:54:22.703
118.0, -38.288538251941, 187500.0, 187500.0, 187500.0, 187500.0, 187500.0, 187500.0, 187500.0, 0.04, -0.022, 1.002, 192.0, 1.0, 64.0, 255.0, 80.0, 31.0, 80.0, 0.0, 0.0, 0.0, 1.6946816627039227E9, 0.0, 2023-09-14 10:54:22.703
119.0, -38.310889996396305, 187500.0, 187500.0, 187500.0, 187500.0, 187500.0, 187500.0, 187500.0, 0.04, -0.022, 1.002, 192.0, 0.0, 0.0, 0.0, 0.0, 0.0, 0.0, 0.0, 0.0, 0.0, 1.6946816627039692E9, 0.0, 2023-09-14 10:54:22.703
120.0, -33.95229982761143, 187500.0, 187500.0, 187500.0, 187500.0, 187500.0, 187500.0, 187500.0, 0.04, -0.022, 1.002, 192.0, 0.0, 0.0, 0.0, 0.0, 0.0, 0.0, 0.0, 0.0, 0.0, 1.694681662704012E9, 0.0, 2023-09-14 10:54:22.704
121.0, -14.930965296145118, 187500.0, 187500.0, 187500.0, 187500.0, 187500.0, 187500.0, 187500.0, 0.04, -0.022, 1.002, 192.0, 0.0, 0.0, 0.0, 0.0, 0.0, 0.0, 0.0, 0.0, 0.0, 1.6946816627040558E9, 0.0, 2023-09-14 10:54:22.704
122.0, -10.706485594092083, 187500.0, 187500.0, 187500.0, 187500.0, 187500.0, 187500.0, 187500.0, 0.04, -0.022, 1.002, 192.0, 0.0, 0.0, 0.0, 0.0, 0.0, 0.0, 0.0, 0.0, 0.0, 1.6946816627041E9, 0.0, 2023-09-14 10:54:22.704
123.0, -10.371209427262476, 187500.0, 187500.0, 187500.0, 187500.0, 187500.0, 187500.0, 187500.0, 0.04, -0.022, 1.002, 192.0, 0.0, 0.0, 0.0, 0.0, 0.0, 0.0, 0.0, 0.0, 0.0, 1.694681662704142E9, 0.0, 2023-09-14 10:54:22.704
124.0, -15.623869374259638, 187500.0, 187500.0, 187500.0, 187500.0, 187500.0, 187500.0, 187500.0, 0.04, -0.022, 1.002, 192.0, 0.0, 0.0, 0.0, 0.0, 0.0, 0.0, 0.0, 0.0, 0.0, 1.694681662704222E9, 0.0, 2023-09-14 10:54:22.704
125.0, -34.57814867236002, 187500.0, 187500.0, 187500.0, 187500.0, 187500.0, 187500.0, 187500.0, 0.04, -0.022, 1.002, 192.0, 0.0, 0.0, 0.0, 0.0, 0.0, 0.0, 0.0, 0.0, 0.0, 1.6946816627042704E9, 0.0, 2023-09-14 10:54:22.704
126.0, -38.57911092985999, 187500.0, 187500.0, 187500.0, 187500.0, 187500.0, 187500.0, 187500.0, 0.04, -0.022, 1.002, 192.0, 0.0, 0.0, 0.0, 0.0, 0.0, 0.0, 0.0, 0.0, 0.0, 1.6946816627043138E9, 0.0, 2023-09-14 10:54:22.704
127.0, -38.42264871867284, 187500.0, 187500.0, 187500.0, 187500.0, 187500.0, 187500.0, 187500.0, 0.04, -0.022, 1.002, 192.0, 0.0, 0.0, 0.0, 0.0, 0.0, 0.0, 0.0, 0.0, 0.0, 1.6946816627043583E9, 0.0, 2023-09-14 10:54:22.704
128.0, -33.5499684274159, 187500.0, 187500.0, 187500.0, 187500.0, 187500.0, 187500.0, 187500.0, 0.036000000000000004, -0.018000000000000002, 1.006, 192.0, 1.0, 32.0, 255.0, 112.0, 31.0, 112.0, 0.0, 0.0, 0.0, 1.6946816627045443E9, 0.0, 2023-09-14 10:54:22.704
129.0, -14.841558318323889, 187500.0, 187500.0, 187500.0, 187500.0, 187500.0, 187500.0, 187500.0, 0.036000000000000004, -0.018000000000000002, 1.006, 192.0, 0.0, 0.0, 0.0, 0.0, 0.0, 0.0, 0.0, 0.0, 0.0, 1.694681662704588E9, 0.0, 2023-09-14 10:54:22.704
130.0, -10.72883733854739, 187500.0, 187500.0, 187500.0, 187500.0, 187500.0, 187500.0, 187500.0, 0.036000000000000004, -0.018000000000000002, 1.006, 192.0, 0.0, 0.0, 0.0, 0.0, 0.0, 0.0, 0.0, 0.0, 0.0, 1.694681662704631E9, 0.0, 2023-09-14 10:54:22.704
131.0, -10.438264660628398, 187500.0, 187500.0, 187500.0, 187500.0, 187500.0, 187500.0, 187500.0, 0.036000000000000004, -0.018000000000000002, 1.006, 192.0, 0.0, 0.0, 0.0, 0.0, 0.0, 0.0, 0.0, 0.0, 0.0, 1.6946816627046745E9, 0.0, 2023-09-14 10:54:22.704
132.0, -15.713276352080864, 187500.0, 187500.0, 187500.0, 187500.0, 187500.0, 187500.0, 187500.0, 0.036000000000000004, -0.018000000000000002, 1.006, 192.0, 0.0, 0.0, 0.0, 0.0, 0.0, 0.0, 0.0, 0.0, 0.0, 1.6946816627047174E9, 0.0, 2023-09-14 10:54:22.704
133.0, -34.66755565018126, 187500.0, 187500.0, 187500.0, 187500.0, 187500.0, 187500.0, 187500.0, 0.036000000000000004, -0.018000000000000002, 1.006, 192.0, 0.0, 0.0, 0.0, 0.0, 0.0, 0.0, 0.0, 0.0, 0.0, 1.6946816627047596E9, 0.0, 2023-09-14 10:54:22.704
134.0, -38.780276629957754, 187500.0, 187500.0, 187500.0, 187500.0, 187500.0, 187500.0, 187500.0, 0.036000000000000004, -0.018000000000000002, 1.006, 192.0, 0.0, 0.0, 0.0, 0.0, 0.0, 0.0, 0.0, 0.0, 0.0, 1.6946816627048016E9, 0.0, 2023-09-14 10:54:22.704
135.0, -38.89203535223429, 187500.0, 187500.0, 187500.0, 187500.0, 187500.0, 187500.0, 187500.0, 0.036000000000000004, -0.018000000000000002, 1.006, 192.0, 0.0, 0.0, 0.0, 0.0, 0.0, 0.0, 0.0, 0.0, 0.0, 1.6946816627048447E9, 0.0, 2023-09-14 10:54:22.704
136.0, -33.72878238305836, 187500.0, 187500.0, 187500.0, 187500.0, 187500.0, 187500.0, 187500.0, 0.036000000000000004, -0.018000000000000002, 1.006, 192.0, 0.0, 0.0, 0.0, 0.0, 0.0, 0.0, 0.0, 0.0, 0.0, 1.694681662704888E9, 0.0, 2023-09-14 10:54:22.704
137.0, -15.400351929706567, 187500.0, 187500.0, 187500.0, 187500.0, 187500.0, 187500.0, 187500.0, 0.036000000000000004, -0.018000000000000002, 1.006, 192.0, 0.0, 0.0, 0.0, 0.0, 0.0, 0.0, 0.0, 0.0, 0.0, 1.694681662704932E9, 0.0, 2023-09-14 10:54:22.704
138.0, -10.594726871815547, 187500.0, 187500.0, 187500.0, 187500.0, 187500.0, 187500.0, 187500.0, 0.04, -0.02, 1.002, 192.0, 1.0, 64.0, 255.0, 96.0, 31.0, 80.0, 0.0, 0.0, 0.0, 1.6946816627049756E9, 0.0, 2023-09-14 10:54:22.704
139.0, -10.259450704985941, 187500.0, 187500.0, 187500.0, 187500.0, 187500.0, 187500.0, 187500.0, 0.04, -0.02, 1.002, 192.0, 0.0, 0.0, 0.0, 0.0, 0.0, 0.0, 0.0, 0.0, 0.0, 1.6946816627050223E9, 0.0, 2023-09-14 10:54:22.705
140.0, -15.355648440795951, 187500.0, 187500.0, 187500.0, 187500.0, 187500.0, 187500.0, 187500.0, 0.04, -0.02, 1.002, 192.0, 0.0, 0.0, 0.0, 0.0, 0.0, 0.0, 0.0, 0.0, 0.0, 1.694681662705068E9, 0.0, 2023-09-14 10:54:22.705
141.0, -34.220520761075115, 187500.0, 187500.0, 187500.0, 187500.0, 187500.0, 187500.0, 187500.0, 0.04, -0.02, 1.002, 192.0, 0.0, 0.0, 0.0, 0.0, 0.0, 0.0, 0.0, 0.0, 0.0, 1.6946816627051117E9, 0.0, 2023-09-14 10:54:22.705
142.0, -38.66851790768122, 187500.0, 187500.0, 187500.0, 187500.0, 187500.0, 187500.0, 187500.0, 0.04, -0.02, 1.002, 192.0, 0.0, 0.0, 0.0, 0.0, 0.0, 0.0, 0.0, 0.0, 0.0, 1.694681662705156E9, 0.0, 2023-09-14 10:54:22.705
143.0, -38.57911092985999, 187500.0, 187500.0, 187500.0, 187500.0, 187500.0, 187500.0, 187500.0, 0.04, -0.02, 1.002, 192.0, 0.0, 0.0, 0.0, 0.0, 0.0, 0.0, 0.0, 0.0, 0.0, 1.6946816627053156E9, 0.0, 2023-09-14 10:54:22.705
144.0, -33.505264938505285, 187500.0, 187500.0, 187500.0, 187500.0, 187500.0, 187500.0, 187500.0, 0.04, -0.02, 1.002, 192.0, 0.0, 0.0, 0.0, 0.0, 0.0, 0.0, 0.0, 0.0, 0.0, 1.6946816627053604E9, 0.0, 2023-09-14 10:54:22.705
145.0, -14.908613551689811, 187500.0, 187500.0, 187500.0, 187500.0, 187500.0, 187500.0, 187500.0, 0.04, -0.02, 1.002, 192.0, 0.0, 0.0, 0.0, 0.0, 0.0, 0.0, 0.0, 0.0, 0.0, 1.6946816627054007E9, 0.0, 2023-09-14 10:54:22.705
146.0, -10.594726871815547, 187500.0, 187500.0, 187500.0, 187500.0, 187500.0, 187500.0, 187500.0, 0.04, -0.02, 1.002, 192.0, 0.0, 0.0, 0.0, 0.0, 0.0, 0.0, 0.0, 0.0, 0.0, 1.694681662705444E9, 0.0, 2023-09-14 10:54:22.705
147.0, -10.594726871815547, 187500.0, 187500.0, 187500.0, 187500.0, 187500.0, 187500.0, 187500.0, 0.04, -0.02, 1.002, 192.0, 0.0, 0.0, 0.0, 0.0, 0.0, 0.0, 0.0, 0.0, 0.0, 1.6946816627054873E9, 0.0, 2023-09-14 10:54:22.705
148.0, -15.06507576287696, 187500.0, 187500.0, 187500.0, 187500.0, 187500.0, 187500.0, 187500.0, 0.032, -0.02, 1.004, 192.0, 1.0, 0.0, 255.0, 96.0, 31.0, 96.0, 0.0, 0.0, 0.0, 1.69468166270553E9, 0.0, 2023-09-14 10:54:22.705
149.0, -34.19816901661981, 187500.0, 187500.0, 187500.0, 187500.0, 187500.0, 187500.0, 187500.0, 0.032, -0.02, 1.004, 192.0, 0.0, 0.0, 0.0, 0.0, 0.0, 0.0, 0.0, 0.0, 0.0, 1.6946816627056072E9, 0.0, 2023-09-14 10:54:22.705
150.0, -38.48970395203876, 187500.0, 187500.0, 187500.0, 187500.0, 187500.0, 187500.0, 187500.0, 0.032, -0.02, 1.004, 192.0, 0.0, 0.0, 0.0, 0.0, 0.0, 0.0, 0.0, 0.0, 0.0, 1.6946816627056568E9, 0.0, 2023-09-14 10:54:22.705
151.0, -38.445000463128146, 187500.0, 187500.0, 187500.0, 187500.0, 187500.0, 187500.0, 187500.0, 0.032, -0.02, 1.004, 192.0, 0.0, 0.0, 0.0, 0.0, 0.0, 0.0, 0.0, 0.0, 0.0, 1.6946816627056973E9, 0.0, 2023-09-14 10:54:22.705
152.0, -34.01935506097735, 187500.0, 187500.0, 187500.0, 187500.0, 187500.0, 187500.0, 187500.0, 0.032, -0.02, 1.004, 192.0, 0.0, 0.0, 0.0, 0.0, 0.0, 0.0, 0.0, 0.0, 0.0, 1.6946816627057295E9, 0.0, 2023-09-14 10:54:22.705
153.0, -14.640392618226127, 187500.0, 187500.0, 187500.0, 187500.0, 187500.0, 187500.0, 187500.0, 0.032, -0.02, 1.004, 192.0, 0.0, 0.0, 0.0, 0.0, 0.0, 0.0, 0.0, 0.0, 0.0, 1.6946816627057545E9, 0.0, 2023-09-14 10:54:22.705
154.0, -9.857119304790414, 187500.0, 187500.0, 187500.0, 187500.0, 187500.0, 187500.0, 187500.0, 0.032, -0.02, 1.004, 192.0, 0.0, 0.0, 0.0, 0.0, 0.0, 0.0, 0.0, 0.0, 0.0, 1.6946816627057793E9, 0.0, 2023-09-14 10:54:22.705
155.0, -10.438264660628398, 187500.0, 187500.0, 187500.0, 187500.0, 187500.0, 187500.0, 187500.0, 0.032, -0.02, 1.004, 192.0, 0.0, 0.0, 0.0, 0.0, 0.0, 0.0, 0.0, 0.0, 0.0, 1.6946816627058055E9, 0.0, 2023-09-14 10:54:22.705
156.0, -15.467407163072487, 187500.0, 187500.0, 187500.0, 187500.0, 187500.0, 187500.0, 187500.0, 0.032, -0.02, 1.004, 192.0, 0.0, 0.0, 0.0, 0.0, 0.0, 0.0, 0.0, 0.0, 0.0, 1.6946816627058322E9, 0.0, 2023-09-14 10:54:22.705
157.0, -34.33227948335165, 187500.0, 187500.0, 187500.0, 187500.0, 187500.0, 187500.0, 187500.0, 0.032, -0.02, 1.004, 192.0, 0.0, 0.0, 0.0, 0.0, 0.0, 0.0, 0.0, 0.0, 0.0, 1.6946816627058578E9, 0.0, 2023-09-14 10:54:22.705
158.0, -38.35559348530692, 187500.0, 187500.0, 187500.0, 187500.0, 187500.0, 187500.0, 187500.0, 0.038, -0.02, 1.002, 192.0, 1.0, 48.0, 255.0, 96.0, 31.0, 80.0, 0.0, 0.0, 0.0, 1.694681662705884E9, 0.0, 2023-09-14 10:54:22.705
159.0, -38.26618650748569, 187500.0, 187500.0, 187500.0, 187500.0, 187500.0, 187500.0, 187500.0, 0.038, -0.02, 1.002, 192.0, 0.0, 0.0, 0.0, 0.0, 0.0, 0.0, 0.0, 0.0, 0.0, 1.694681662705967E9, 0.0, 2023-09-14 10:54:22.705
160.0, -33.59467191632652, 187500.0, 187500.0, 187500.0, 187500.0, 187500.0, 187500.0, 187500.0, 0.038, -0.02, 1.002, 192.0, 0.0, 0.0, 0.0, 0.0, 0.0, 0.0, 0.0, 0.0, 0.0, 1.694681662705994E9, 0.0, 2023-09-14 10:54:22.705
161.0, -15.020372273966347, 187500.0, 187500.0, 187500.0, 187500.0, 187500.0, 187500.0, 187500.0, 0.038, -0.02, 1.002, 192.0, 0.0, 0.0, 0.0, 0.0, 0.0, 0.0, 0.0, 0.0, 0.0, 1.6946816627060187E9, 0.0, 2023-09-14 10:54:22.706
162.0, -10.594726871815547, 187500.0, 187500.0, 187500.0, 187500.0, 187500.0, 187500.0, 187500.0, 0.038, -0.02, 1.002, 192.0, 0.0, 0.0, 0.0, 0.0, 0.0, 0.0, 0.0, 0.0, 0.0, 1.6946816627060459E9, 0.0, 2023-09-14 10:54:22.706
163.0, -10.527671638449627, 187500.0, 187500.0, 187500.0, 187500.0, 187500.0, 187500.0, 187500.0, 0.038, -0.02, 1.002, 192.0, 0.0, 0.0, 0.0, 0.0, 0.0, 0.0, 0.0, 0.0, 0.0, 1.6946816627060733E9, 0.0, 2023-09-14 10:54:22.706
164.0, -15.75797984099148, 187500.0, 187500.0, 187500.0, 187500.0, 187500.0, 187500.0, 187500.0, 0.038, -0.02, 1.002, 192.0, 0.0, 0.0, 0.0, 0.0, 0.0, 0.0, 0.0, 0.0, 0.0, 1.6946816627061012E9, 0.0, 2023-09-14 10:54:22.706
165.0, -34.421686461172875, 187500.0, 187500.0, 187500.0, 187500.0, 187500.0, 187500.0, 187500.0, 0.038, -0.02, 1.002, 192.0, 0.0, 0.0, 0.0, 0.0, 0.0, 0.0, 0.0, 0.0, 0.0, 1.6946816627061267E9, 0.0, 2023-09-14 10:54:22.706
166.0, -38.780276629957754, 187500.0, 187500.0, 187500.0, 187500.0, 187500.0, 187500.0, 187500.0, 0.038, -0.02, 1.002, 192.0, 0.0, 0.0, 0.0, 0.0, 0.0, 0.0, 0.0, 0.0, 0.0, 1.6946816627061515E9, 0.0, 2023-09-14 10:54:22.706
167.0, -38.780276629957754, 187500.0, 187500.0, 187500.0, 187500.0, 187500.0, 187500.0, 187500.0, 0.038, -0.02, 1.002, 192.0, 0.0, 0.0, 0.0, 0.0, 0.0, 0.0, 0.0, 0.0, 0.0, 1.6946816627061844E9, 0.0, 2023-09-14 10:54:22.706
168.0, -33.684078894147746, 187500.0, 187500.0, 187500.0, 187500.0, 187500.0, 187500.0, 187500.0, 0.038, -0.018000000000000002, 1.006, 192.0, 1.0, 48.0, 255.0, 112.0, 31.0, 112.0, 0.0, 0.0, 0.0, 1.6946816627062109E9, 0.0, 2023-09-14 10:54:22.706
169.0, -14.640392618226127, 187500.0, 187500.0, 187500.0, 187500.0, 187500.0, 187500.0, 187500.0, 0.038, -0.018000000000000002, 1.006, 192.0, 0.0, 0.0, 0.0, 0.0, 0.0, 0.0, 0.0, 0.0, 0.0, 1.6946816627062378E9, 0.0, 2023-09-14 10:54:22.706
170.0, -10.639430360726163, 187500.0, 187500.0, 187500.0, 187500.0, 187500.0, 187500.0, 187500.0, 0.038, -0.018000000000000002, 1.006, 192.0, 0.0, 0.0, 0.0, 0.0, 0.0, 0.0, 0.0, 0.0, 0.0, 1.6946816627062638E9, 0.0, 2023-09-14 10:54:22.706
171.0, -10.415912916173092, 187500.0, 187500.0, 187500.0, 187500.0, 187500.0, 187500.0, 187500.0, 0.038, -0.018000000000000002, 1.006, 192.0, 0.0, 0.0, 0.0, 0.0, 0.0, 0.0, 0.0, 0.0, 0.0, 1.6946816627062893E9, 0.0, 2023-09-14 10:54:22.706
172.0, -15.400351929706567, 187500.0, 187500.0, 187500.0, 187500.0, 187500.0, 187500.0, 187500.0, 0.038, -0.018000000000000002, 1.006, 192.0, 0.0, 0.0, 0.0, 0.0, 0.0, 0.0, 0.0, 0.0, 0.0, 1.6946816627063148E9, 0.0, 2023-09-14 10:54:22.706
173.0, -34.421686461172875, 187500.0, 187500.0, 187500.0, 187500.0, 187500.0, 187500.0, 187500.0, 0.038, -0.018000000000000002, 1.006, 192.0, 0.0, 0.0, 0.0, 0.0, 0.0, 0.0, 0.0, 0.0, 0.0, 1.6946816627063417E9, 0.0, 2023-09-14 10:54:22.706
174.0, -38.6014626743153, 187500.0, 187500.0, 187500.0, 187500.0, 187500.0, 187500.0, 187500.0, 0.038, -0.018000000000000002, 1.006, 192.0, 0.0, 0.0, 0.0, 0.0, 0.0, 0.0, 0.0, 0.0, 0.0, 1.6946816627063985E9, 0.0, 2023-09-14 10:54:22.706
175.0, -38.66851790768122, 187500.0, 187500.0, 187500.0, 187500.0, 187500.0, 187500.0, 187500.0, 0.038, -0.018000000000000002, 1.006, 192.0, 0.0, 0.0, 0.0, 0.0, 0.0, 0.0, 0.0, 0.0, 0.0, 1.694681662706424E9, 0.0, 2023-09-14 10:54:22.706
176.0, -33.8628928497902, 187500.0, 187500.0, 187500.0, 187500.0, 187500.0, 187500.0, 187500.0, 0.038, -0.018000000000000002, 1.006, 192.0, 0.0, 0.0, 0.0, 0.0, 0.0, 0.0, 0.0, 0.0, 0.0, 1.6946816627064486E9, 0.0, 2023-09-14 10:54:22.706
177.0, -14.841558318323889, 187500.0, 187500.0, 187500.0, 187500.0, 187500.0, 187500.0, 187500.0, 0.038, -0.018000000000000002, 1.006, 192.0, 0.0, 0.0, 0.0, 0.0, 0.0, 0.0, 0.0, 0.0, 0.0, 1.6946816627064736E9, 0.0, 2023-09-14 10:54:22.706
178.0, -10.505319893994319, 187500.0, 187500.0, 187500.0, 187500.0, 187500.0, 187500.0, 187500.0, 0.038, -0.018000000000000002, 0.998, 192.0, 1.0, 48.0, 255.0, 112.0, 31.0, 48.0, 0.0, 0.0, 0.0, 1.694681662706499E9, 0.0, 2023-09-14 10:54:22.706
179.0, -10.19239547162002, 187500.0, 187500.0, 187500.0, 187500.0, 187500.0, 187500.0, 187500.0, 0.038, -0.018000000000000002, 0.998, 192.0, 0.0, 0.0, 0.0, 0.0, 0.0, 0.0, 0.0, 0.0, 0.0, 1.6946816627065256E9, 0.0, 2023-09-14 10:54:22.706
180.0, -15.646221118714944, 187500.0, 187500.0, 187500.0, 187500.0, 187500.0, 187500.0, 187500.0, 0.038, -0.018000000000000002, 0.998, 192.0, 0.0, 0.0, 0.0, 0.0, 0.0, 0.0, 0.0, 0.0, 0.0, 1.6946816627065504E9, 0.0, 2023-09-14 10:54:22.706
181.0, -34.46638995008349, 187500.0, 187500.0, 187500.0, 187500.0, 187500.0, 187500.0, 187500.0, 0.038, -0.018000000000000002, 0.998, 192.0, 0.0, 0.0, 0.0, 0.0, 0.0, 0.0, 0.0, 0.0, 0.0, 1.6946816627065752E9, 0.0, 2023-09-14 10:54:22.706
182.0, -38.80262837441306, 187500.0, 187500.0, 187500.0, 187500.0, 187500.0, 187500.0, 187500.0, 0.038, -0.018000000000000002, 0.998, 192.0, 0.0, 0.0, 0.0, 0.0, 0.0, 0.0, 0.0, 0.0, 0.0, 1.6946816627066E9, 0.0, 2023-09-14 10:54:22.706
183.0, -38.46735220758345, 187500.0, 187500.0, 187500.0, 187500.0, 187500.0, 187500.0, 187500.0, 0.038, -0.018000000000000002, 0.998, 192.0, 0.0, 0.0, 0.0, 0.0, 0.0, 0.0, 0.0, 0.0, 0.0, 1.6946816627066247E9, 0.0, 2023-09-14 10:54:22.706
184.0, -33.5499684274159, 187500.0, 187500.0, 187500.0, 187500.0, 187500.0, 187500.0, 187500.0, 0.038, -0.018000000000000002, 0.998, 192.0, 0.0, 0.0, 0.0, 0.0, 0.0, 0.0, 0.0, 0.0, 0.0, 1.6946816627066495E9, 0.0, 2023-09-14 10:54:22.706
185.0, -14.349819940307134, 187500.0, 187500.0, 187500.0, 187500.0, 187500.0, 187500.0, 187500.0, 0.038, -0.018000000000000002, 0.998, 192.0, 0.0, 0.0, 0.0, 0.0, 0.0, 0.0, 0.0, 0.0, 0.0, 1.6946816627066743E9, 0.0, 2023-09-14 10:54:22.706
186.0, -10.19239547162002, 187500.0, 187500.0, 187500.0, 187500.0, 187500.0, 187500.0, 187500.0, 0.038, -0.018000000000000002, 0.998, 192.0, 0.0, 0.0, 0.0, 0.0, 0.0, 0.0, 0.0, 0.0, 0.0, 1.6946816627066996E9, 0.0, 2023-09-14 10:54:22.706
187.0, -10.28180244944125, 187500.0, 187500.0, 187500.0, 187500.0, 187500.0, 187500.0, 187500.0, 0.038, -0.018000000000000002, 0.998, 192.0, 0.0, 0.0, 0.0, 0.0, 0.0, 0.0, 0.0, 0.0, 0.0, 1.6946816627067246E9, 0.0, 2023-09-14 10:54:22.706
188.0, -15.512110651983102, 187500.0, 187500.0, 187500.0, 187500.0, 187500.0, 187500.0, 187500.0, 0.042, -0.014, 1.0, 192.0, 1.0, 80.0, 255.0, 144.0, 31.0, 64.0, 0.0, 0.0, 0.0, 1.6946816627067494E9, 0.0, 2023-09-14 10:54:22.706
189.0, -34.33227948335165, 187500.0, 187500.0, 187500.0, 187500.0, 187500.0, 187500.0, 187500.0, 0.042, -0.014, 1.0, 192.0, 0.0, 0.0, 0.0, 0.0, 0.0, 0.0, 0.0, 0.0, 0.0, 1.6946816627068005E9, 0.0, 2023-09-14 10:54:22.706
190.0, -38.48970395203876, 187500.0, 187500.0, 187500.0, 187500.0, 187500.0, 187500.0, 187500.0, 0.042, -0.014, 1.0, 192.0, 0.0, 0.0, 0.0, 0.0, 0.0, 0.0, 0.0, 0.0, 0.0, 1.6946816627068255E9, 0.0, 2023-09-14 10:54:22.706
191.0, -38.713221396591834, 187500.0, 187500.0, 187500.0, 187500.0, 187500.0, 187500.0, 187500.0, 0.042, -0.014, 1.0, 192.0, 0.0, 0.0, 0.0, 0.0, 0.0, 0.0, 0.0, 0.0, 0.0, 1.6946816627068503E9, 0.0, 2023-09-14 10:54:22.706
192.0, -33.70643063860305, 187500.0, 187500.0, 187500.0, 187500.0, 187500.0, 187500.0, 187500.0, 0.042, -0.014, 1.0, 192.0, 0.0, 0.0, 0.0, 0.0, 0.0, 0.0, 0.0, 0.0, 0.0, 1.694681662706875E9, 0.0, 2023-09-14 10:54:22.706
193.0, -14.729799596047354, 187500.0, 187500.0, 187500.0, 187500.0, 187500.0, 187500.0, 187500.0, 0.042, -0.014, 1.0, 192.0, 0.0, 0.0, 0.0, 0.0, 0.0, 0.0, 0.0, 0.0, 0.0, 1.6946816627069E9, 0.0, 2023-09-14 10:54:22.706
194.0, -10.214747216075327, 187500.0, 187500.0, 187500.0, 187500.0, 187500.0, 187500.0, 187500.0, 0.042, -0.014, 1.0, 192.0, 0.0, 0.0, 0.0, 0.0, 0.0, 0.0, 0.0, 0.0, 0.0, 1.694681662706925E9, 0.0, 2023-09-14 10:54:22.706
195.0, -10.415912916173092, 187500.0, 187500.0, 187500.0, 187500.0, 187500.0, 187500.0, 187500.0, 0.042, -0.014, 1.0, 192.0, 0.0, 0.0, 0.0, 0.0, 0.0, 0.0, 0.0, 0.0, 0.0, 1.6946816627069492E9, 0.0, 2023-09-14 10:54:22.706
196.0, -15.44505541861718, 187500.0, 187500.0, 187500.0, 187500.0, 187500.0, 187500.0, 187500.0, 0.042, -0.014, 1.0, 192.0, 0.0, 0.0, 0.0, 0.0, 0.0, 0.0, 0.0, 0.0, 0.0, 1.6946816627069745E9, 0.0, 2023-09-14 10:54:22.706
197.0, -34.287575994441035, 187500.0, 187500.0, 187500.0, 187500.0, 187500.0, 187500.0, 187500.0, 0.042, -0.016, 1.004, 192.0, 1.0, 80.0, 255.0, 128.0, 31.0, 96.0, 0.0, 0.0, 0.0, 1.694681662706999E9, 0.0, 2023-09-14 10:54:22.706
198.0, -38.62381441877061, 187500.0, 187500.0, 187500.0, 187500.0, 187500.0, 187500.0, 187500.0, 0.042, -0.016, 1.004, 192.0, 0.0, 0.0, 0.0, 0.0, 0.0, 0.0, 0.0, 0.0, 0.0, 1.6946816627070253E9, 0.0, 2023-09-14 10:54:22.707
199.0, -38.445000463128146, 187500.0, 187500.0, 187500.0, 187500.0, 187500.0, 187500.0, 187500.0, 0.042, -0.016, 1.004, 192.0, 0.0, 0.0, 0.0, 0.0, 0.0, 0.0, 0.0, 0.0, 0.0, 1.69468166270705E9, 0.0, 2023-09-14 10:54:22.707
200.0, -33.72878238305836, 187500.0, 187500.0, 187500.0, 187500.0, 187500.0, 187500.0, 187500.0, 0.042, -0.016, 1.004, 192.0, 0.0, 0.0, 0.0, 0.0, 0.0, 0.0, 0.0, 0.0, 0.0, 1.6946816627070749E9, 0.0, 2023-09-14 10:54:22.707
201.0, -15.020372273966347, 187500.0, 187500.0, 187500.0, 187500.0, 187500.0, 187500.0, 187500.0, 0.042, -0.016, 1.004, 192.0, 0.0, 0.0, 0.0, 0.0, 0.0, 0.0, 0.0, 0.0, 0.0, 1.6946816627070997E9, 0.0, 2023-09-14 10:54:22.707
202.0, -10.438264660628398, 187500.0, 187500.0, 187500.0, 187500.0, 187500.0, 187500.0, 187500.0, 0.042, -0.016, 1.004, 192.0, 0.0, 0.0, 0.0, 0.0, 0.0, 0.0, 0.0, 0.0, 0.0, 1.6946816627071245E9, 0.0, 2023-09-14 10:54:22.707
203.0, -10.058285004888178, 187500.0, 187500.0, 187500.0, 187500.0, 187500.0, 187500.0, 187500.0, 0.042, -0.016, 1.004, 192.0, 0.0, 0.0, 0.0, 0.0, 0.0, 0.0, 0.0, 0.0, 0.0, 1.6946816627071495E9, 0.0, 2023-09-14 10:54:22.707
204.0, -15.400351929706567, 187500.0, 187500.0, 187500.0, 187500.0, 187500.0, 187500.0, 187500.0, 0.042, -0.016, 1.004, 192.0, 0.0, 0.0, 0.0, 0.0, 0.0, 0.0, 0.0, 0.0, 0.0, 1.6946816627072048E9, 0.0, 2023-09-14 10:54:22.707
205.0, -34.24287250553042, 187500.0, 187500.0, 187500.0, 187500.0, 187500.0, 187500.0, 187500.0, 0.042, -0.016, 1.004, 192.0, 0.0, 0.0, 0.0, 0.0, 0.0, 0.0, 0.0, 0.0, 0.0, 1.6946816627073314E9, 0.0, 2023-09-14 10:54:22.707
206.0, -38.69086965213653, 187500.0, 187500.0, 187500.0, 187500.0, 187500.0, 187500.0, 187500.0, 0.042, -0.016, 1.004, 192.0, 0.0, 0.0, 0.0, 0.0, 0.0, 0.0, 0.0, 0.0, 0.0, 1.694681662707384E9, 0.0, 2023-09-14 10:54:22.707
207.0, -38.46735220758345, 187500.0, 187500.0, 187500.0, 187500.0, 187500.0, 187500.0, 187500.0, 0.034, -0.018000000000000002, 1.004, 192.0, 1.0, 16.0, 255.0, 112.0, 31.0, 96.0, 0.0, 0.0, 0.0, 1.6946816627074146E9, 0.0, 2023-09-14 10:54:22.707
208.0, -33.48291319404998, 187500.0, 187500.0, 187500.0, 187500.0, 187500.0, 187500.0, 187500.0, 0.034, -0.018000000000000002, 1.004, 192.0, 0.0, 0.0, 0.0, 0.0, 0.0, 0.0, 0.0, 0.0, 0.0, 1.694681662707441E9, 0.0, 2023-09-14 10:54:22.707
209.0, -14.573337384860205, 187500.0, 187500.0, 187500.0, 187500.0, 187500.0, 187500.0, 187500.0, 0.034, -0.018000000000000002, 1.004, 192.0, 0.0, 0.0, 0.0, 0.0, 0.0, 0.0, 0.0, 0.0, 0.0, 1.694681662707466E9, 0.0, 2023-09-14 10:54:22.707
210.0, -10.393561171717785, 187500.0, 187500.0, 187500.0, 187500.0, 187500.0, 187500.0, 187500.0, 0.034, -0.018000000000000002, 1.004, 192.0, 0.0, 0.0, 0.0, 0.0, 0.0, 0.0, 0.0, 0.0, 0.0, 1.6946816627074919E9, 0.0, 2023-09-14 10:54:22.707
211.0, -10.594726871815547, 187500.0, 187500.0, 187500.0, 187500.0, 187500.0, 187500.0, 187500.0, 0.034, -0.018000000000000002, 1.004, 192.0, 0.0, 0.0, 0.0, 0.0, 0.0, 0.0, 0.0, 0.0, 0.0, 1.6946816627075164E9, 0.0, 2023-09-14 10:54:22.707
212.0, -15.75797984099148, 187500.0, 187500.0, 187500.0, 187500.0, 187500.0, 187500.0, 187500.0, 0.034, -0.018000000000000002, 1.004, 192.0, 0.0, 0.0, 0.0, 0.0, 0.0, 0.0, 0.0, 0.0, 0.0, 1.6946816627075412E9, 0.0, 2023-09-14 10:54:22.707
213.0, -34.46638995008349, 187500.0, 187500.0, 187500.0, 187500.0, 187500.0, 187500.0, 187500.0, 0.034, -0.018000000000000002, 1.004, 192.0, 0.0, 0.0, 0.0, 0.0, 0.0, 0.0, 0.0, 0.0, 0.0, 1.694681662707566E9, 0.0, 2023-09-14 10:54:22.707
214.0, -38.48970395203876, 187500.0, 187500.0, 187500.0, 187500.0, 187500.0, 187500.0, 187500.0, 0.034, -0.018000000000000002, 1.004, 192.0, 0.0, 0.0, 0.0, 0.0, 0.0, 0.0, 0.0, 0.0, 0.0, 1.6946816627075908E9, 0.0, 2023-09-14 10:54:22.707
215.0, -38.80262837441306, 187500.0, 187500.0, 187500.0, 187500.0, 187500.0, 187500.0, 187500.0, 0.034, -0.018000000000000002, 1.004, 192.0, 0.0, 0.0, 0.0, 0.0, 0.0, 0.0, 0.0, 0.0, 0.0, 1.6946816627076154E9, 0.0, 2023-09-14 10:54:22.707
216.0, -34.13111378325389, 187500.0, 187500.0, 187500.0, 187500.0, 187500.0, 187500.0, 187500.0, 0.034, -0.018000000000000002, 1.004, 192.0, 0.0, 0.0, 0.0, 0.0, 0.0, 0.0, 0.0, 0.0, 0.0, 1.69468166270764E9, 0.0, 2023-09-14 10:54:22.707
217.0, -14.841558318323889, 187500.0, 187500.0, 187500.0, 187500.0, 187500.0, 187500.0, 187500.0, 0.036000000000000004, -0.026000000000000002, 1.002, 192.0, 1.0, 32.0, 255.0, 48.0, 31.0, 80.0, 0.0, 0.0, 0.0, 1.6946816627076647E9, 0.0, 2023-09-14 10:54:22.707
218.0, -10.28180244944125, 187500.0, 187500.0, 187500.0, 187500.0, 187500.0, 187500.0, 187500.0, 0.036000000000000004, -0.026000000000000002, 1.002, 192.0, 0.0, 0.0, 0.0, 0.0, 0.0, 0.0, 0.0, 0.0, 0.0, 1.6946816627076907E9, 0.0, 2023-09-14 10:54:22.707
219.0, -10.639430360726163, 187500.0, 187500.0, 187500.0, 187500.0, 187500.0, 187500.0, 187500.0, 0.036000000000000004, -0.026000000000000002, 1.002, 192.0, 0.0, 0.0, 0.0, 0.0, 0.0, 0.0, 0.0, 0.0, 0.0, 1.6946816627077155E9, 0.0, 2023-09-14 10:54:22.707
220.0, -15.8250350743574, 187500.0, 187500.0, 187500.0, 187500.0, 187500.0, 187500.0, 187500.0, 0.036000000000000004, -0.026000000000000002, 1.002, 192.0, 0.0, 0.0, 0.0, 0.0, 0.0, 0.0, 0.0, 0.0, 0.0, 1.6946816627077725E9, 0.0, 2023-09-14 10:54:22.707
221.0, -34.66755565018126, 187500.0, 187500.0, 187500.0, 187500.0, 187500.0, 187500.0, 187500.0, 0.036000000000000004, -0.026000000000000002, 1.002, 192.0, 0.0, 0.0, 0.0, 0.0, 0.0, 0.0, 0.0, 0.0, 0.0, 1.6946816627077975E9, 0.0, 2023-09-14 10:54:22.707
222.0, -38.646166163225914, 187500.0, 187500.0, 187500.0, 187500.0, 187500.0, 187500.0, 187500.0, 0.036000000000000004, -0.026000000000000002, 1.002, 192.0, 0.0, 0.0, 0.0, 0.0, 0.0, 0.0, 0.0, 0.0, 0.0, 1.6946816627078223E9, 0.0, 2023-09-14 10:54:22.707
223.0, -38.35559348530692, 187500.0, 187500.0, 187500.0, 187500.0, 187500.0, 187500.0, 187500.0, 0.036000000000000004, -0.026000000000000002, 1.002, 192.0, 0.0, 0.0, 0.0, 0.0, 0.0, 0.0, 0.0, 0.0, 0.0, 1.6946816627078469E9, 0.0, 2023-09-14 10:54:22.707
224.0, -33.59467191632652, 187500.0, 187500.0, 187500.0, 187500.0, 187500.0, 187500.0, 187500.0, 0.036000000000000004, -0.026000000000000002, 1.002, 192.0, 0.0, 0.0, 0.0, 0.0, 0.0, 0.0, 0.0, 0.0, 0.0, 1.6946816627078717E9, 0.0, 2023-09-14 10:54:22.707
225.0, -15.087427507332267, 187500.0, 187500.0, 187500.0, 187500.0, 187500.0, 187500.0, 187500.0, 0.036000000000000004, -0.026000000000000002, 1.002, 192.0, 0.0, 0.0, 0.0, 0.0, 0.0, 0.0, 0.0, 0.0, 0.0, 1.6946816631848147E9, 0.0, 2023-09-14 10:54:23.184
226.0, -10.259450704985941, 187500.0, 187500.0, 187500.0, 187500.0, 187500.0, 187500.0, 187500.0, 0.036000000000000004, -0.026000000000000002, 1.002, 192.0, 0.0, 0.0, 0.0, 0.0, 0.0, 0.0, 0.0, 0.0, 0.0, 1.6946816631849103E9, 0.0, 2023-09-14 10:54:23.184
227.0, -10.013581515977563, 187500.0, 187500.0, 187500.0, 187500.0, 187500.0, 187500.0, 187500.0, 0.034, -0.028, 1.004, 192.0, 1.0, 16.0, 255.0, 32.0, 31.0, 96.0, 0.0, 0.0, 0.0, 1.6946816631849756E9, 0.0, 2023-09-14 10:54:23.184
228.0, -15.579165885349022, 187500.0, 187500.0, 187500.0, 187500.0, 187500.0, 187500.0, 187500.0, 0.034, -0.028, 1.004, 192.0, 0.0, 0.0, 0.0, 0.0, 0.0, 0.0, 0.0, 0.0, 0.0, 1.6946816631850598E9, 0.0, 2023-09-14 10:54:23.185
229.0, -34.287575994441035, 187500.0, 187500.0, 187500.0, 187500.0, 187500.0, 187500.0, 187500.0, 0.034, -0.028, 1.004, 192.0, 0.0, 0.0, 0.0, 0.0, 0.0, 0.0, 0.0, 0.0, 0.0, 1.694681663185124E9, 0.0, 2023-09-14 10:54:23.185
230.0, -38.42264871867284, 187500.0, 187500.0, 187500.0, 187500.0, 187500.0, 187500.0, 187500.0, 0.034, -0.028, 1.004, 192.0, 0.0, 0.0, 0.0, 0.0, 0.0, 0.0, 0.0, 0.0, 0.0, 1.6946816631851685E9, 0.0, 2023-09-14 10:54:23.185
231.0, -38.75792488550245, 187500.0, 187500.0, 187500.0, 187500.0, 187500.0, 187500.0, 187500.0, 0.034, -0.028, 1.004, 192.0, 0.0, 0.0, 0.0, 0.0, 0.0, 0.0, 0.0, 0.0, 0.0, 1.6946816631851952E9, 0.0, 2023-09-14 10:54:23.185
232.0, -33.818189360879586, 187500.0, 187500.0, 187500.0, 187500.0, 187500.0, 187500.0, 187500.0, 0.034, -0.028, 1.004, 192.0, 0.0, 0.0, 0.0, 0.0, 0.0, 0.0, 0.0, 0.0, 0.0, 1.6946816631852205E9, 0.0, 2023-09-14 10:54:23.185
233.0, -14.908613551689811, 187500.0, 187500.0, 187500.0, 187500.0, 187500.0, 187500.0, 187500.0, 0.034, -0.028, 1.004, 192.0, 0.0, 0.0, 0.0, 0.0, 0.0, 0.0, 0.0, 0.0, 0.0, 1.6946816631852455E9, 0.0, 2023-09-14 10:54:23.185
234.0, -10.237098960530634, 187500.0, 187500.0, 187500.0, 187500.0, 187500.0, 187500.0, 187500.0, 0.034, -0.028, 1.004, 192.0, 0.0, 0.0, 0.0, 0.0, 0.0, 0.0, 0.0, 0.0, 0.0, 1.6946816631852708E9, 0.0, 2023-09-14 10:54:23.185
235.0, -9.90182279370103, 187500.0, 187500.0, 187500.0, 187500.0, 187500.0, 187500.0, 187500.0, 0.034, -0.028, 1.004, 192.0, 0.0, 0.0, 0.0, 0.0, 0.0, 0.0, 0.0, 0.0, 0.0, 1.6946816631854455E9, 0.0, 2023-09-14 10:54:23.185
236.0, -15.556814140893716, 187500.0, 187500.0, 187500.0, 187500.0, 187500.0, 187500.0, 187500.0, 0.034, -0.028, 1.004, 192.0, 0.0, 0.0, 0.0, 0.0, 0.0, 0.0, 0.0, 0.0, 0.0, 1.6946816631854825E9, 0.0, 2023-09-14 10:54:23.185
237.0, -34.354631227806955, 187500.0, 187500.0, 187500.0, 187500.0, 187500.0, 187500.0, 187500.0, 0.032, -0.024, 1.002, 192.0, 1.0, 0.0, 255.0, 64.0, 31.0, 80.0, 0.0, 0.0, 0.0, 1.6946816631855083E9, 0.0, 2023-09-14 10:54:23.185
238.0, -38.847331863323674, 187500.0, 187500.0, 187500.0, 187500.0, 187500.0, 187500.0, 187500.0, 0.032, -0.024, 1.002, 192.0, 0.0, 0.0, 0.0, 0.0, 0.0, 0.0, 0.0, 0.0, 0.0, 1.6946816631855352E9, 0.0, 2023-09-14 10:54:23.185
239.0, -38.53440744094937, 187500.0, 187500.0, 187500.0, 187500.0, 187500.0, 187500.0, 187500.0, 0.032, -0.024, 1.002, 192.0, 0.0, 0.0, 0.0, 0.0, 0.0, 0.0, 0.0, 0.0, 0.0, 1.6946816631855597E9, 0.0, 2023-09-14 10:54:23.185
240.0, -33.72878238305836, 187500.0, 187500.0, 187500.0, 187500.0, 187500.0, 187500.0, 187500.0, 0.032, -0.024, 1.002, 192.0, 0.0, 0.0, 0.0, 0.0, 0.0, 0.0, 0.0, 0.0, 0.0, 1.6946816631855843E9, 0.0, 2023-09-14 10:54:23.185
241.0, -15.132130996242882, 187500.0, 187500.0, 187500.0, 187500.0, 187500.0, 187500.0, 187500.0, 0.032, -0.024, 1.002, 192.0, 0.0, 0.0, 0.0, 0.0, 0.0, 0.0, 0.0, 0.0, 0.0, 1.6946816631856096E9, 0.0, 2023-09-14 10:54:23.185
242.0, -10.34885768280717, 187500.0, 187500.0, 187500.0, 187500.0, 187500.0, 187500.0, 187500.0, 0.032, -0.024, 1.002, 192.0, 0.0, 0.0, 0.0, 0.0, 0.0, 0.0, 0.0, 0.0, 0.0, 1.6946816631856344E9, 0.0, 2023-09-14 10:54:23.185
243.0, -10.259450704985941, 187500.0, 187500.0, 187500.0, 187500.0, 187500.0, 187500.0, 187500.0, 0.032, -0.024, 1.002, 192.0, 0.0, 0.0, 0.0, 0.0, 0.0, 0.0, 0.0, 0.0, 0.0, 1.6946816631856592E9, 0.0, 2023-09-14 10:54:23.185
244.0, -15.37800018525126, 187500.0, 187500.0, 187500.0, 187500.0, 187500.0, 187500.0, 187500.0, 0.032, -0.024, 1.002, 192.0, 0.0, 0.0, 0.0, 0.0, 0.0, 0.0, 0.0, 0.0, 0.0, 1.694681663185684E9, 0.0, 2023-09-14 10:54:23.185
245.0, -34.46638995008349, 187500.0, 187500.0, 187500.0, 187500.0, 187500.0, 187500.0, 187500.0, 0.032, -0.024, 1.002, 192.0, 0.0, 0.0, 0.0, 0.0, 0.0, 0.0, 0.0, 0.0, 0.0, 1.6946816631857088E9, 0.0, 2023-09-14 10:54:23.185
246.0, -38.69086965213653, 187500.0, 187500.0, 187500.0, 187500.0, 187500.0, 187500.0, 187500.0, 0.032, -0.024, 1.002, 192.0, 0.0, 0.0, 0.0, 0.0, 0.0, 0.0, 0.0, 0.0, 0.0, 1.6946816631857336E9, 0.0, 2023-09-14 10:54:23.185
247.0, -38.75792488550245, 187500.0, 187500.0, 187500.0, 187500.0, 187500.0, 187500.0, 187500.0, 0.036000000000000004, -0.026000000000000002, 1.0, 192.0, 1.0, 32.0, 255.0, 48.0, 31.0, 64.0, 0.0, 0.0, 0.0, 1.6946816631857584E9, 0.0, 2023-09-14 10:54:23.185
248.0, -33.77348587196897, 187500.0, 187500.0, 187500.0, 187500.0, 187500.0, 187500.0, 187500.0, 0.036000000000000004, -0.026000000000000002, 1.0, 192.0, 0.0, 0.0, 0.0, 0.0, 0.0, 0.0, 0.0, 0.0, 0.0, 1.6946816631857848E9, 0.0, 2023-09-14 10:54:23.185
249.0, -14.99802052951104, 187500.0, 187500.0, 187500.0, 187500.0, 187500.0, 187500.0, 187500.0, 0.036000000000000004, -0.026000000000000002, 1.0, 192.0, 0.0, 0.0, 0.0, 0.0, 0.0, 0.0, 0.0, 0.0, 0.0, 1.69468166318581E9, 0.0, 2023-09-14 10:54:23.185
250.0, -10.482968149539012, 187500.0, 187500.0, 187500.0, 187500.0, 187500.0, 187500.0, 187500.0, 0.036000000000000004, -0.026000000000000002, 1.0, 192.0, 0.0, 0.0, 0.0, 0.0, 0.0, 0.0, 0.0, 0.0, 0.0, 1.6946816631859124E9, 0.0, 2023-09-14 10:54:23.185
251.0, -10.214747216075327, 187500.0, 187500.0, 187500.0, 187500.0, 187500.0, 187500.0, 187500.0, 0.036000000000000004, -0.026000000000000002, 1.0, 192.0, 0.0, 0.0, 0.0, 0.0, 0.0, 0.0, 0.0, 0.0, 0.0, 1.6946816631859393E9, 0.0, 2023-09-14 10:54:23.185
252.0, -15.176834485153496, 187500.0, 187500.0, 187500.0, 187500.0, 187500.0, 187500.0, 187500.0, 0.036000000000000004, -0.026000000000000002, 1.0, 192.0, 0.0, 0.0, 0.0, 0.0, 0.0, 0.0, 0.0, 0.0, 0.0, 1.6946816631859639E9, 0.0, 2023-09-14 10:54:23.185
253.0, -34.39933471671757, 187500.0, 187500.0, 187500.0, 187500.0, 187500.0, 187500.0, 187500.0, 0.036000000000000004, -0.026000000000000002, 1.0, 192.0, 0.0, 0.0, 0.0, 0.0, 0.0, 0.0, 0.0, 0.0, 0.0, 1.6946816631859884E9, 0.0, 2023-09-14 10:54:23.185
254.0, -38.713221396591834, 187500.0, 187500.0, 187500.0, 187500.0, 187500.0, 187500.0, 187500.0, 0.036000000000000004, -0.026000000000000002, 1.0, 192.0, 0.0, 0.0, 0.0, 0.0, 0.0, 0.0, 0.0, 0.0, 0.0, 1.6946816631860132E9, 0.0, 2023-09-14 10:54:23.186
255.0, -38.48970395203876, 187500.0, 187500.0, 187500.0, 187500.0, 187500.0, 187500.0, 187500.0, 0.036000000000000004, -0.026000000000000002, 1.0, 192.0, 0.0, 0.0, 0.0, 0.0, 0.0, 0.0, 0.0, 0.0, 0.0, 1.6946816631860378E9, 0.0, 2023-09-14 10:54:23.186
0.0, -33.572320171871205, 187500.0, 187500.0, 187500.0, 187500.0, 187500.0, 187500.0, 187500.0, 0.036000000000000004, -0.026000000000000002, 1.0, 192.0, 0.0, 0.0, 0.0, 0.0, 0.0, 0.0, 0.0, 0.0, 0.0, 1.694681663186084E9, 0.0, 2023-09-14 10:54:23.186
1.0, -14.908613551689811, 187500.0, 187500.0, 187500.0, 187500.0, 187500.0, 187500.0, 187500.0, 0.034, -0.024, 0.996, 192.0, 1.0, 16.0, 255.0, 64.0, 31.0, 32.0, 0.0, 0.0, 0.0, 1.6946816631861117E9, 0.0, 2023-09-14 10:54:23.186
2.0, -10.304154193896556, 187500.0, 187500.0, 187500.0, 187500.0, 187500.0, 187500.0, 187500.0, 0.034, -0.024, 0.996, 192.0, 0.0, 0.0, 0.0, 0.0, 0.0, 0.0, 0.0, 0.0, 0.0, 1.6946816631861389E9, 0.0, 2023-09-14 10:54:23.186
3.0, -10.214747216075327, 187500.0, 187500.0, 187500.0, 187500.0, 187500.0, 187500.0, 187500.0, 0.034, -0.024, 0.996, 192.0, 0.0, 0.0, 0.0, 0.0, 0.0, 0.0, 0.0, 0.0, 0.0, 1.6946816631861637E9, 0.0, 2023-09-14 10:54:23.186
4.0, -15.646221118714944, 187500.0, 187500.0, 187500.0, 187500.0, 187500.0, 187500.0, 187500.0, 0.034, -0.024, 0.996, 192.0, 0.0, 0.0, 0.0, 0.0, 0.0, 0.0, 0.0, 0.0, 0.0, 1.6946816631861887E9, 0.0, 2023-09-14 10:54:23.186
5.0, -34.66755565018126, 187500.0, 187500.0, 187500.0, 187500.0, 187500.0, 187500.0, 187500.0, 0.034, -0.024, 0.996, 192.0, 0.0, 0.0, 0.0, 0.0, 0.0, 0.0, 0.0, 0.0, 0.0, 1.6946816631862133E9, 0.0, 2023-09-14 10:54:23.186
6.0, -38.46735220758345, 187500.0, 187500.0, 187500.0, 187500.0, 187500.0, 187500.0, 187500.0, 0.034, -0.024, 0.996, 192.0, 0.0, 0.0, 0.0, 0.0, 0.0, 0.0, 0.0, 0.0, 0.0, 1.694681663186238E9, 0.0, 2023-09-14 10:54:23.186
7.0, -38.42264871867284, 187500.0, 187500.0, 187500.0, 187500.0, 187500.0, 187500.0, 187500.0, 0.034, -0.024, 0.996, 192.0, 0.0, 0.0, 0.0, 0.0, 0.0, 0.0, 0.0, 0.0, 0.0, 1.6946816631862624E9, 0.0, 2023-09-14 10:54:23.186
8.0, -33.28174749395222, 187500.0, 187500.0, 187500.0, 187500.0, 187500.0, 187500.0, 187500.0, 0.034, -0.024, 0.996, 192.0, 0.0, 0.0, 0.0, 0.0, 0.0, 0.0, 0.0, 0.0, 0.0, 1.6946816631862872E9, 0.0, 2023-09-14 10:54:23.186
9.0, -14.99802052951104, 187500.0, 187500.0, 187500.0, 187500.0, 187500.0, 187500.0, 187500.0, 0.034, -0.024, 0.996, 192.0, 0.0, 0.0, 0.0, 0.0, 0.0, 0.0, 0.0, 0.0, 0.0, 1.6946816631863117E9, 0.0, 2023-09-14 10:54:23.186
10.0, -10.706485594092083, 187500.0, 187500.0, 187500.0, 187500.0, 187500.0, 187500.0, 187500.0, 0.034, -0.024, 0.996, 192.0, 0.0, 0.0, 0.0, 0.0, 0.0, 0.0, 0.0, 0.0, 0.0, 1.6946816631864035E9, 0.0, 2023-09-14 10:54:23.186
11.0, -10.326505938351863, 187500.0, 187500.0, 187500.0, 187500.0, 187500.0, 187500.0, 187500.0, 0.032, -0.024, 0.998, 192.0, 1.0, 0.0, 255.0, 64.0, 31.0, 48.0, 0.0, 0.0, 0.0, 1.6946816631864295E9, 0.0, 2023-09-14 10:54:23.186
